Data from ha06_a35L_FLMS070571_001.txt Node
Date: Tue Apr 10 16:39:33 EDT 2018
User: peter
Spectrometer: FLMS07057
Trigger mode: 0
Integration Time (sec): 8.000000E0
Scans to average: 2
Electric dark correction enabled: true
Nonlinearity correction enabled: false
Boxcar width: 0
XAxis mode: Wavelengths
Number of Pixels in Spectrum: 2048
>>>>>Begin Spectral Data<<<<<
 339.015 -3.739e-03
 339.393 -3.739e-03
 339.770 -2.217e-03
 340.148  1.603e-02
 340.526  1.681e-02
 340.904  1.623e-02
 341.281 -3.681e-03
 341.659 -3.047e-03
 342.036 -2.497e-03
 342.414  3.171e-04
 342.791  2.365e-03
 343.169  2.556e-03
 343.546  2.414e-03
 343.923  3.405e-04
 344.301 -5.472e-05
 344.678  3.353e-04
 345.055  3.120e-03
 345.432  3.511e-03
 345.810  3.487e-03
 346.187 -2.158e-04
 346.564 -6.956e-04
 346.941 -7.283e-04
 347.318  1.178e-04
 347.695  2.245e-04
 348.071  1.710e-04
 348.448  1.377e-04
 348.825  1.253e-04
 349.202  1.205e-04
 349.578  1.673e-04
 349.955  1.839e-04
 350.332  1.984e-04
 350.708  1.702e-04
 351.085  1.316e-04
 351.461  1.223e-04
 351.838  1.170e-04
 352.214  1.128e-04
 352.591  1.260e-04
 352.967  1.204e-04
 353.343  1.613e-04
 353.719  1.406e-04
 354.096  1.156e-04
 354.472  1.046e-04
 354.848  1.188e-04
 355.224  1.166e-04
 355.600  1.302e-04
 355.976  1.137e-04
 356.352  1.198e-04
 356.728  7.885e-05
 357.104  7.763e-05
 357.479  8.699e-05
 357.855  9.619e-05
 358.231  1.083e-04
 358.607  9.747e-05
 358.982  9.160e-05
 359.358  7.826e-05
 359.734  6.837e-05
 360.109  9.032e-05
 360.484  9.373e-05
 360.860  1.103e-04
 361.235  8.423e-05
 361.611  7.727e-05
 361.986  7.505e-05
 362.361  8.150e-05
 362.736  9.385e-05
 363.112  8.887e-05
 363.487  7.459e-05
 363.862  5.937e-05
 364.237  5.266e-05
 364.612  4.312e-05
 364.987  4.753e-05
 365.362  5.378e-05
 365.737  7.109e-05
 366.112  7.544e-05
 366.486  6.414e-05
 366.861  6.511e-05
 367.236  5.288e-05
 367.610  6.414e-05
 367.985  7.236e-05
 368.360  5.675e-05
 368.734  4.760e-05
 369.109  3.463e-05
 369.483  3.243e-05
 369.858  2.913e-05
 370.232  3.433e-05
 370.606  4.739e-05
 370.981  5.375e-05
 371.355  5.105e-05
 371.729  4.856e-05
 372.103  4.518e-05
 372.477  3.953e-05
 372.851  3.649e-05
 373.225  4.721e-05
 373.599  4.197e-05
 373.973  5.223e-05
 374.347  4.743e-05
 374.721  4.576e-05
 375.095  3.361e-05
 375.469  2.699e-05
 375.842  2.329e-05
 376.216  2.247e-05
 376.590  2.050e-05
 376.963  3.302e-05
 377.337  3.752e-05
 377.710  3.386e-05
 378.084  2.997e-05
 378.457  3.090e-05
 378.831  3.377e-05
 379.204  3.076e-05
 379.577  2.490e-05
 379.951  2.457e-05
 380.324  3.228e-05
 380.697  2.793e-05
 381.070  2.712e-05
 381.443  2.604e-05
 381.816  3.153e-05
 382.189  3.185e-05
 382.562  2.780e-05
 382.935  3.810e-05
 383.308  4.269e-05
 383.681  4.084e-05
 384.054  2.964e-05
 384.426  1.896e-05
 384.799  1.869e-05
 385.172  2.111e-05
 385.544  2.932e-05
 385.917  3.292e-05
 386.290  3.204e-05
 386.662  2.563e-05
 387.034  2.151e-05
 387.407  1.894e-05
 387.779  1.978e-05
 388.152  2.057e-05
 388.524  2.509e-05
 388.896  2.708e-05
 389.268  2.748e-05
 389.640  2.465e-05
 390.013  2.231e-05
 390.385  1.871e-05
 390.757  1.551e-05
 391.129  2.166e-05
 391.500  1.997e-05
 391.872  2.118e-05
 392.244  1.641e-05
 392.616  1.982e-05
 392.988  1.884e-05
 393.360  1.760e-05
 393.731  1.401e-05
 394.103  1.166e-05
 394.474  9.208e-06
 394.846  9.820e-06
 395.217  1.234e-05
 395.589  1.614e-05
 395.960  1.763e-05
 396.332  1.881e-05
 396.703  1.744e-05
 397.074  1.837e-05
 397.446  1.877e-05
 397.817  1.651e-05
 398.188  1.327e-05
 398.559  1.233e-05
 398.930  1.179e-05
 399.301  1.354e-05
 399.672  1.272e-05
 400.043  1.538e-05
 400.414  1.496e-05
 400.785  1.283e-05
 401.156  1.188e-05
 401.526  1.154e-05
 401.897  1.399e-05
 402.268  1.496e-05
 402.638  1.590e-05
 403.009  1.491e-05
 403.380  1.334e-05
 403.750  9.934e-06
 404.121  8.763e-06
 404.491  9.925e-06
 404.861  1.162e-05
 405.232  1.091e-05
 405.602  6.320e-06
 405.972  5.731e-06
 406.342  6.349e-06
 406.713  7.636e-06
 407.083  1.021e-05
 407.453  1.219e-05
 407.823  1.337e-05
 408.193  1.202e-05
 408.563  1.077e-05
 408.933  9.480e-06
 409.302  7.843e-06
 409.672  8.704e-06
 410.042  9.283e-06
 410.412  8.701e-06
 410.781  8.903e-06
 411.151  9.353e-06
 411.521  1.326e-05
 411.890  1.093e-05
 412.260  1.126e-05
 412.629  1.089e-05
 412.999  1.384e-05
 413.368  1.370e-05
 413.737  1.194e-05
 414.107  9.273e-06
 414.476  1.029e-05
 414.845  1.006e-05
 415.214  1.069e-05
 415.583  1.028e-05
 415.952  1.179e-05
 416.322  1.208e-05
 416.691  1.060e-05
 417.059  7.530e-06
 417.428  7.038e-06
 417.797  8.809e-06
 418.166  1.149e-05
 418.535  1.178e-05
 418.904  1.227e-05
 419.272  1.133e-05
 419.641  1.048e-05
 420.009  7.901e-06
 420.378  6.803e-06
 420.747  5.911e-06
 421.115  6.254e-06
 421.483  6.091e-06
 421.852  6.878e-06
 422.220  6.651e-06
 422.588  7.646e-06
 422.957  8.622e-06
 423.325  8.213e-06
 423.693  7.248e-06
 424.061  5.961e-06
 424.429  6.004e-06
 424.797  6.322e-06
 425.165  6.420e-06
 425.533  5.659e-06
 425.901  5.289e-06
 426.269  5.385e-06
 426.637  5.741e-06
 427.005  6.160e-06
 427.372  6.246e-06
 427.740  6.710e-06
 428.108  5.857e-06
 428.475  4.994e-06
 428.843  5.396e-06
 429.210  5.971e-06
 429.578  7.901e-06
 429.945  8.268e-06
 430.312  9.186e-06
 430.680  7.095e-06
 431.047  6.036e-06
 431.414  4.880e-06
 431.782  5.928e-06
 432.149  5.618e-06
 432.516  6.535e-06
 432.883  6.572e-06
 433.250  6.777e-06
 433.617  6.705e-06
 433.984  5.996e-06
 434.351  6.656e-06
 434.718  5.822e-06
 435.084  4.987e-06
 435.451  4.619e-06
 435.818  4.348e-06
 436.184  5.070e-06
 436.551  5.996e-06
 436.918  6.572e-06
 437.284  6.367e-06
 437.651  5.905e-06
 438.017  5.322e-06
 438.384  5.651e-06
 438.750  5.191e-06
 439.116  4.786e-06
 439.483  5.354e-06
 439.849  5.269e-06
 440.215  5.581e-06
 440.581  5.034e-06
 440.947  4.325e-06
 441.313  3.867e-06
 441.679  3.658e-06
 442.045  5.105e-06
 442.411  6.643e-06
 442.777  7.463e-06
 443.143  5.941e-06
 443.509  5.690e-06
 443.874  4.210e-06
 444.240  5.400e-06
 444.606  4.267e-06
 444.971  5.508e-06
 445.337  4.801e-06
 445.703  5.245e-06
 446.068  4.649e-06
 446.433  4.283e-06
 446.799  3.507e-06
 447.164  2.695e-06
 447.530  2.841e-06
 447.895  4.181e-06
 448.260  5.212e-06
 448.625  5.278e-06
 448.990  3.895e-06
 449.355  3.579e-06
 449.720  4.510e-06
 450.085  5.197e-06
 450.450  4.782e-06
 450.815  4.241e-06
 451.180  1.248e-05
 451.545  1.423e-05
 451.910  1.431e-05
 452.275  5.387e-06
 452.639  4.182e-06
 453.004  3.650e-06
 453.369  4.080e-06
 453.733  3.099e-06
 454.098  3.271e-06
 454.462  3.595e-06
 454.826  4.278e-06
 455.191  4.197e-06
 455.555  4.222e-06
 455.919  4.844e-06
 456.284  5.598e-06
 456.648  5.242e-06
 457.012  4.314e-06
 457.376  3.670e-06
 457.740  3.742e-06
 458.104  4.101e-06
 458.468  3.675e-06
 458.832  3.906e-06
 459.196  3.367e-06
 459.560  3.584e-06
 459.924  3.527e-06
 460.288  4.002e-06
 460.651  4.198e-06
 461.015  4.057e-06
 461.379  3.647e-06
 461.742  3.347e-06
 462.106  3.332e-06
 462.469  3.723e-06
 462.833  3.987e-06
 463.196  4.248e-06
 463.559  4.090e-06
 463.923  4.983e-06
 464.286  5.173e-06
 464.649  5.193e-06
 465.012  3.954e-06
 465.376  3.957e-06
 465.739  3.880e-06
 466.102  4.250e-06
 466.465  4.072e-06
 466.828  4.013e-06
 467.191  3.900e-06
 467.553  3.775e-06
 467.916  4.023e-06
 468.279  4.093e-06
 468.642  3.716e-06
 469.004  3.248e-06
 469.367  3.156e-06
 469.730  2.958e-06
 470.092  3.315e-06
 470.455  3.069e-06
 470.817  3.337e-06
 471.180  3.545e-06
 471.542  3.541e-06
 471.904  3.506e-06
 472.267  3.017e-06
 472.629  2.706e-06
 472.991  2.636e-06
 473.353  2.702e-06
 473.715  2.974e-06
 474.078  2.875e-06
 474.440  2.409e-06
 474.802  2.425e-06
 475.163  2.488e-06
 475.525  2.867e-06
 475.887  2.935e-06
 476.249  2.891e-06
 476.611  2.943e-06
 476.972  3.011e-06
 477.334  3.170e-06
 477.696  3.094e-06
 478.057  2.931e-06
 478.419  2.575e-06
 478.780  2.349e-06
 479.142  2.356e-06
 479.503  2.329e-06
 479.865  2.646e-06
 480.226  2.777e-06
 480.587  2.791e-06
 480.948  2.666e-06
 481.310  2.558e-06
 481.671  2.696e-06
 482.032  2.693e-06
 482.393  2.581e-06
 482.754  2.631e-06
 483.115  2.476e-06
 483.476  2.598e-06
 483.837  2.366e-06
 484.197  2.672e-06
 484.558  2.742e-06
 484.919  2.907e-06
 485.280  2.937e-06
 485.640  2.919e-06
 486.001  2.958e-06
 486.361  2.852e-06
 486.722  2.649e-06
 487.082  2.744e-06
 487.443  2.704e-06
 487.803  2.701e-06
 488.163  2.546e-06
 488.524  2.460e-06
 488.884  2.504e-06
 489.244  2.339e-06
 489.604  2.312e-06
 489.964  2.340e-06
 490.324  2.328e-06
 490.684  2.452e-06
 491.044  2.491e-06
 491.404  2.883e-06
 491.764  2.554e-06
 492.124  2.526e-06
 492.484  2.485e-06
 492.843  2.839e-06
 493.203  2.789e-06
 493.563  2.612e-06
 493.922  2.544e-06
 494.282  2.579e-06
 494.642  2.622e-06
 495.001  2.630e-06
 495.360  2.689e-06
 495.720  2.702e-06
 496.079  2.678e-06
 496.438  2.540e-06
 496.798  2.530e-06
 497.157  2.471e-06
 497.516  2.518e-06
 497.875  2.500e-06
 498.234  2.657e-06
 498.593  2.693e-06
 498.952  2.719e-06
 499.311  2.881e-06
 499.670  2.808e-06
 500.029  2.727e-06
 500.388  2.764e-06
 500.746  2.875e-06
 501.105  3.066e-06
 501.464  2.871e-06
 501.822  3.184e-06
 502.181  3.228e-06
 502.539  3.226e-06
 502.898  3.052e-06
 503.256  3.127e-06
 503.615  3.283e-06
 503.973  3.433e-06
 504.331  3.429e-06
 504.690  3.363e-06
 505.048  3.083e-06
 505.406  3.050e-06
 505.764  3.034e-06
 506.122  3.172e-06
 506.480  3.320e-06
 506.838  3.441e-06
 507.196  3.395e-06
 507.554  3.394e-06
 507.912  3.486e-06
 508.270  3.756e-06
 508.627  3.557e-06
 508.985  3.489e-06
 509.343  3.401e-06
 509.700  3.591e-06
 510.058  3.566e-06
 510.415  3.650e-06
 510.773  3.671e-06
 511.130  3.897e-06
 511.488  3.966e-06
 511.845  3.928e-06
 512.202  3.859e-06
 512.560  3.950e-06
 512.917  4.047e-06
 513.274  4.128e-06
 513.631  4.000e-06
 513.988  4.086e-06
 514.345  4.019e-06
 514.702  3.939e-06
 515.059  3.976e-06
 515.416  3.989e-06
 515.773  4.233e-06
 516.130  4.197e-06
 516.486  4.366e-06
 516.843  4.406e-06
 517.200  4.560e-06
 517.556  4.601e-06
 517.913  4.583e-06
 518.269  4.755e-06
 518.626  4.799e-06
 518.982  4.958e-06
 519.339  4.888e-06
 519.695  4.894e-06
 520.051  4.868e-06
 520.408  4.940e-06
 520.764  5.065e-06
 521.120  5.139e-06
 521.476  5.178e-06
 521.832  5.165e-06
 522.188  5.145e-06
 522.544  5.117e-06
 522.900  5.198e-06
 523.256  5.377e-06
 523.612  5.295e-06
 523.968  5.335e-06
 524.323  5.368e-06
 524.679  5.448e-06
 525.035  5.412e-06
 525.390  5.347e-06
 525.746  5.418e-06
 526.102  5.605e-06
 526.457  5.780e-06
 526.812  5.789e-06
 527.168  5.760e-06
 527.523  5.682e-06
 527.878  5.666e-06
 528.234  5.684e-06
 528.589  5.792e-06
 528.944  5.855e-06
 529.299  5.925e-06
 529.654  5.905e-06
 530.009  6.044e-06
 530.364  5.963e-06
 530.719  6.038e-06
 531.074  5.990e-06
 531.429  6.150e-06
 531.784  6.098e-06
 532.138  6.200e-06
 532.493  6.216e-06
 532.848  6.321e-06
 533.202  6.506e-06
 533.557  6.526e-06
 533.911  6.621e-06
 534.266  6.605e-06
 534.620  6.660e-06
 534.975  6.654e-06
 535.329  6.697e-06
 535.683  6.712e-06
 536.038  6.691e-06
 536.392  6.684e-06
 536.746  6.789e-06
 537.100  6.908e-06
 537.454  6.857e-06
 537.808  6.847e-06
 538.162  6.954e-06
 538.516  7.100e-06
 538.870  7.138e-06
 539.224  7.055e-06
 539.577  7.179e-06
 539.931  7.471e-06
 540.285  7.584e-06
 540.639  7.565e-06
 540.992  7.341e-06
 541.346  7.362e-06
 541.699  7.445e-06
 542.053  7.811e-06
 542.406  7.967e-06
 542.759  8.091e-06
 543.113  7.942e-06
 543.466  7.982e-06
 543.819  8.066e-06
 544.172  8.144e-06
 544.526  8.262e-06
 544.879  8.341e-06
 545.232  8.460e-06
 545.585  8.443e-06
 545.938  8.489e-06
 546.291  8.459e-06
 546.643  8.593e-06
 546.996  8.707e-06
 547.349  8.898e-06
 547.702  9.107e-06
 548.054  9.196e-06
 548.407  9.281e-06
 548.760  9.300e-06
 549.112  9.442e-06
 549.465  9.613e-06
 549.817  9.823e-06
 550.169  9.849e-06
 550.522  9.983e-06
 550.874  1.010e-05
 551.226  1.045e-05
 551.579  1.053e-05
 551.931  1.074e-05
 552.283  1.082e-05
 552.635  1.111e-05
 552.987  1.115e-05
 553.339  1.114e-05
 553.691  1.122e-05
 554.043  1.134e-05
 554.395  1.162e-05
 554.746  1.185e-05
 555.098  1.212e-05
 555.450  1.235e-05
 555.802  1.264e-05
 556.153  1.268e-05
 556.505  1.273e-05
 556.856  1.272e-05
 557.208  1.298e-05
 557.559  1.329e-05
 557.911  1.347e-05
 558.262  1.373e-05
 558.613  1.388e-05
 558.964  1.422e-05
 559.316  1.447e-05
 559.667  1.471e-05
 560.018  1.484e-05
 560.369  1.489e-05
 560.720  1.492e-05
 561.071  1.518e-05
 561.422  1.542e-05
 561.773  1.570e-05
 562.124  1.584e-05
 562.474  1.608e-05
 562.825  1.652e-05
 563.176  1.686e-05
 563.526  1.719e-05
 563.877  1.732e-05
 564.228  1.752e-05
 564.578  1.752e-05
 564.928  1.775e-05
 565.279  1.795e-05
 565.629  1.839e-05
 565.980  1.869e-05
 566.330  1.907e-05
 566.680  1.935e-05
 567.030  1.951e-05
 567.380  1.969e-05
 567.730  1.997e-05
 568.080  2.032e-05
 568.430  2.057e-05
 568.780  2.090e-05
 569.130  2.112e-05
 569.480  2.159e-05
 569.830  2.166e-05
 570.180  2.193e-05
 570.529  2.198e-05
 570.879  2.232e-05
 571.229  2.280e-05
 571.578  2.316e-05
 571.928  2.352e-05
 572.277  2.367e-05
 572.627  2.381e-05
 572.976  2.405e-05
 573.325  2.424e-05
 573.675  2.458e-05
 574.024  2.497e-05
 574.373  2.527e-05
 574.722  2.550e-05
 575.071  2.571e-05
 575.420  2.607e-05
 575.769  2.642e-05
 576.118  2.667e-05
 576.467  2.710e-05
 576.816  2.742e-05
 577.165  2.770e-05
 577.514  2.797e-05
 577.863  2.852e-05
 578.211  2.880e-05
 578.560  2.908e-05
 578.908  2.928e-05
 579.257  2.967e-05
 579.606  2.999e-05
 579.954  3.039e-05
 580.302  3.097e-05
 580.651  3.137e-05
 580.999  3.159e-05
 581.347  3.173e-05
 581.696  3.203e-05
 582.044  3.234e-05
 582.392  3.291e-05
 582.740  3.335e-05
 583.088  3.365e-05
 583.436  3.395e-05
 583.784  3.431e-05
 584.132  3.473e-05
 584.480  3.499e-05
 584.827  3.516e-05
 585.175  3.548e-05
 585.523  3.546e-05
 585.870  3.600e-05
 586.218  3.642e-05
 586.566  3.715e-05
 586.913  3.730e-05
 587.261  3.749e-05
 587.608  3.784e-05
 587.955  3.810e-05
 588.303  3.862e-05
 588.650  3.888e-05
 588.997  3.943e-05
 589.344  3.978e-05
 589.692  4.011e-05
 590.039  4.053e-05
 590.386  4.095e-05
 590.733  4.119e-05
 591.080  4.143e-05
 591.427  4.172e-05
 591.773  4.218e-05
 592.120  4.252e-05
 592.467  4.307e-05
 592.814  4.347e-05
 593.160  4.392e-05
 593.507  4.408e-05
 593.854  4.439e-05
 594.200  4.472e-05
 594.547  4.496e-05
 594.893  4.528e-05
 595.239  4.558e-05
 595.586  4.587e-05
 595.932  4.618e-05
 596.278  4.652e-05
 596.624  4.714e-05
 596.971  4.773e-05
 597.317  4.820e-05
 597.663  4.851e-05
 598.009  4.877e-05
 598.355  4.896e-05
 598.701  4.923e-05
 599.046  4.937e-05
 599.392  4.986e-05
 599.738  4.988e-05
 600.084  5.025e-05
 600.429  5.037e-05
 600.775  5.082e-05
 601.121  5.124e-05
 601.466  5.152e-05
 601.812  5.188e-05
 602.157  5.211e-05
 602.503  5.255e-05
 602.848  5.298e-05
 603.193  5.323e-05
 603.538  5.329e-05
 603.884  5.337e-05
 604.229  5.373e-05
 604.574  5.417e-05
 604.919  5.460e-05
 605.264  5.482e-05
 605.609  5.497e-05
 605.954  5.521e-05
 606.299  5.545e-05
 606.644  5.572e-05
 606.988  5.585e-05
 607.333  5.592e-05
 607.678  5.601e-05
 608.022  5.657e-05
 608.367  5.688e-05
 608.712  5.733e-05
 609.056  5.721e-05
 609.400  5.769e-05
 609.745  5.801e-05
 610.089  5.855e-05
 610.434  5.839e-05
 610.778  5.839e-05
 611.122  5.853e-05
 611.466  5.898e-05
 611.810  5.899e-05
 612.154  5.911e-05
 612.498  5.910e-05
 612.842  5.975e-05
 613.186  6.005e-05
 613.530  6.027e-05
 613.874  6.041e-05
 614.218  6.029e-05
 614.561  6.078e-05
 614.905  6.088e-05
 615.249  6.118e-05
 615.592  6.135e-05
 615.936  6.155e-05
 616.279  6.150e-05
 616.623  6.193e-05
 616.966  6.200e-05
 617.310  6.218e-05
 617.653  6.176e-05
 617.996  6.192e-05
 618.339  6.228e-05
 618.683  6.241e-05
 619.026  6.237e-05
 619.369  6.260e-05
 619.712  6.321e-05
 620.055  6.385e-05
 620.398  6.391e-05
 620.741  6.378e-05
 621.083  6.365e-05
 621.426  6.395e-05
 621.769  6.399e-05
 622.112  6.449e-05
 622.454  6.464e-05
 622.797  6.506e-05
 623.139  6.478e-05
 623.482  6.489e-05
 623.824  6.510e-05
 624.167  6.547e-05
 624.509  6.558e-05
 624.851  6.531e-05
 625.194  6.576e-05
 625.536  6.609e-05
 625.878  6.669e-05
 626.220  6.674e-05
 626.562  6.698e-05
 626.904  6.724e-05
 627.246  6.714e-05
 627.588  6.734e-05
 627.930  6.760e-05
 628.272  6.791e-05
 628.614  6.828e-05
 628.955  6.846e-05
 629.297  6.891e-05
 629.639  6.895e-05
 629.980  6.902e-05
 630.322  6.907e-05
 630.663  6.931e-05
 631.005  6.968e-05
 631.346  7.009e-05
 631.688  7.029e-05
 632.029  7.045e-05
 632.370  7.068e-05
 632.711  7.073e-05
 633.052  7.099e-05
 633.394  7.102e-05
 633.735  7.124e-05
 634.076  7.110e-05
 634.417  7.116e-05
 634.758  7.135e-05
 635.098  7.160e-05
 635.439  7.182e-05
 635.780  7.176e-05
 636.121  7.179e-05
 636.461  7.172e-05
 636.802  7.179e-05
 637.143  7.188e-05
 637.483  7.200e-05
 637.824  7.210e-05
 638.164  7.210e-05
 638.505  7.173e-05
 638.845  7.170e-05
 639.185  7.142e-05
 639.525  7.146e-05
 639.866  7.127e-05
 640.206  7.110e-05
 640.546  7.118e-05
 640.886  7.088e-05
 641.226  7.098e-05
 641.566  7.078e-05
 641.906  7.077e-05
 642.246  7.081e-05
 642.585  7.065e-05
 642.925  7.046e-05
 643.265  6.996e-05
 643.605  6.968e-05
 643.944  6.963e-05
 644.284  6.933e-05
 644.623  6.900e-05
 644.963  6.859e-05
 645.302  6.836e-05
 645.642  6.822e-05
 645.981  6.835e-05
 646.320  6.858e-05
 646.660  6.831e-05
 646.999  6.765e-05
 647.338  6.718e-05
 647.677  6.734e-05
 648.016  6.790e-05
 648.355  6.804e-05
 648.694  6.798e-05
 649.033  6.772e-05
 649.372  6.802e-05
 649.711  6.793e-05
 650.049  6.800e-05
 650.388  6.772e-05
 650.727  6.788e-05
 651.065  6.814e-05
 651.404  6.831e-05
 651.742  6.864e-05
 652.081  6.849e-05
 652.419  6.862e-05
 652.758  6.895e-05
 653.096  6.933e-05
 653.434  6.959e-05
 653.772  6.954e-05
 654.111  6.968e-05
 654.449  6.979e-05
 654.787  7.011e-05
 655.125  6.990e-05
 655.463  6.988e-05
 655.801  6.984e-05
 656.139  7.004e-05
 656.476  7.003e-05
 656.814  7.006e-05
 657.152  7.018e-05
 657.490  6.993e-05
 657.827  6.968e-05
 658.165  6.941e-05
 658.503  6.952e-05
 658.840  6.927e-05
 659.177  6.883e-05
 659.515  6.854e-05
 659.852  6.824e-05
 660.190  6.814e-05
 660.527  6.764e-05
 660.864  6.715e-05
 661.201  6.648e-05
 661.538  6.613e-05
 661.875  6.556e-05
 662.212  6.510e-05
 662.549  6.456e-05
 662.886  6.371e-05
 663.223  6.291e-05
 663.560  6.219e-05
 663.897  6.203e-05
 664.233  6.181e-05
 664.570  6.129e-05
 664.907  6.050e-05
 665.243  5.992e-05
 665.580  5.933e-05
 665.916  5.888e-05
 666.253  5.823e-05
 666.589  5.761e-05
 666.925  5.718e-05
 667.262  5.671e-05
 667.598  5.633e-05
 667.934  5.595e-05
 668.270  5.535e-05
 668.606  5.510e-05
 668.942  5.500e-05
 669.278  5.500e-05
 669.614  5.446e-05
 669.950  5.394e-05
 670.286  5.367e-05
 670.622  5.352e-05
 670.958  5.299e-05
 671.293  5.251e-05
 671.629  5.237e-05
 671.965  5.227e-05
 672.300  5.248e-05
 672.636  5.251e-05
 672.971  5.264e-05
 673.307  5.266e-05
 673.642  5.275e-05
 673.977  5.309e-05
 674.313  5.316e-05
 674.648  5.310e-05
 674.983  5.328e-05
 675.318  5.381e-05
 675.653  5.439e-05
 675.988  5.442e-05
 676.323  5.445e-05
 676.658  5.484e-05
 676.993  5.548e-05
 677.328  5.578e-05
 677.663  5.625e-05
 677.997  5.660e-05
 678.332  5.745e-05
 678.667  5.788e-05
 679.001  5.868e-05
 679.336  5.933e-05
 679.670  6.030e-05
 680.005  6.114e-05
 680.339  6.218e-05
 680.673  6.307e-05
 681.008  6.389e-05
 681.342  6.467e-05
 681.676  6.602e-05
 682.010  6.766e-05
 682.344  6.924e-05
 682.678  7.055e-05
 683.012  7.189e-05
 683.346  7.324e-05
 683.680  7.505e-05
 684.014  7.718e-05
 684.348  7.923e-05
 684.682  8.113e-05
 685.015  8.269e-05
 685.349  8.489e-05
 685.682  8.697e-05
 686.016  8.911e-05
 686.350  9.125e-05
 686.683  9.389e-05
 687.016  9.632e-05
 687.350  9.869e-05
 687.683  1.009e-04
 688.016  1.036e-04
 688.350  1.058e-04
 688.683  1.082e-04
 689.016  1.103e-04
 689.349  1.135e-04
 689.682  1.154e-04
 690.015  1.183e-04
 690.348  1.203e-04
 690.681  1.227e-04
 691.013  1.253e-04
 691.346  1.280e-04
 691.679  1.306e-04
 692.012  1.329e-04
 692.344  1.348e-04
 692.677  1.375e-04
 693.009  1.394e-04
 693.342  1.421e-04
 693.674  1.443e-04
 694.007  1.464e-04
 694.339  1.473e-04
 694.671  1.491e-04
 695.003  1.513e-04
 695.336  1.539e-04
 695.668  1.559e-04
 696.000  1.570e-04
 696.332  1.582e-04
 696.664  1.597e-04
 696.996  1.623e-04
 697.328  1.644e-04
 697.659  1.661e-04
 697.991  1.674e-04
 698.323  1.696e-04
 698.655  1.715e-04
 698.986  1.736e-04
 699.318  1.745e-04
 699.649  1.757e-04
 699.981  1.773e-04
 700.312  1.797e-04
 700.644  1.806e-04
 700.975  1.811e-04
 701.306  1.821e-04
 701.638  1.834e-04
 701.969  1.839e-04
 702.300  1.846e-04
 702.631  1.852e-04
 702.962  1.878e-04
 703.293  1.885e-04
 703.624  1.909e-04
 703.955  1.914e-04
 704.286  1.919e-04
 704.617  1.924e-04
 704.947  1.925e-04
 705.278  1.943e-04
 705.609  1.945e-04
 705.939  1.963e-04
 706.270  1.954e-04
 706.600  1.970e-04
 706.931  1.976e-04
 707.261  2.010e-04
 707.592  2.017e-04
 707.922  2.019e-04
 708.252  2.007e-04
 708.582  2.017e-04
 708.912  2.029e-04
 709.243  2.053e-04
 709.573  2.062e-04
 709.903  2.076e-04
 710.233  2.092e-04
 710.563  2.102e-04
 710.892  2.102e-04
 711.222  2.112e-04
 711.552  2.123e-04
 711.882  2.135e-04
 712.211  2.137e-04
 712.541  2.142e-04
 712.870  2.163e-04
 713.200  2.168e-04
 713.529  2.171e-04
 713.859  2.164e-04
 714.188  2.173e-04
 714.518  2.186e-04
 714.847  2.186e-04
 715.176  2.201e-04
 715.505  2.209e-04
 715.834  2.233e-04
 716.163  2.234e-04
 716.492  2.242e-04
 716.821  2.235e-04
 717.150  2.241e-04
 717.479  2.237e-04
 717.808  2.241e-04
 718.137  2.233e-04
 718.465  2.246e-04
 718.794  2.263e-04
 719.123  2.285e-04
 719.451  2.296e-04
 719.780  2.289e-04
 720.108  2.302e-04
 720.437  2.310e-04
 720.765  2.315e-04
 721.093  2.313e-04
 721.422  2.312e-04
 721.750  2.338e-04
 722.078  2.331e-04
 722.406  2.345e-04
 722.734  2.364e-04
 723.062  2.386e-04
 723.390  2.397e-04
 723.718  2.397e-04
 724.046  2.413e-04
 724.374  2.421e-04
 724.702  2.418e-04
 725.029  2.417e-04
 725.357  2.419e-04
 725.685  2.422e-04
 726.012  2.439e-04
 726.340  2.450e-04
 726.667  2.465e-04
 726.995  2.471e-04
 727.322  2.469e-04
 727.649  2.476e-04
 727.977  2.488e-04
 728.304  2.497e-04
 728.631  2.514e-04
 728.958  2.499e-04
 729.285  2.518e-04
 729.612  2.505e-04
 729.939  2.536e-04
 730.266  2.544e-04
 730.593  2.551e-04
 730.920  2.531e-04
 731.246  2.542e-04
 731.573  2.568e-04
 731.900  2.594e-04
 732.226  2.594e-04
 732.553  2.592e-04
 732.880  2.610e-04
 733.206  2.619e-04
 733.532  2.627e-04
 733.859  2.630e-04
 734.185  2.632e-04
 734.511  2.658e-04
 734.838  2.657e-04
 735.164  2.679e-04
 735.490  2.675e-04
 735.816  2.683e-04
 736.142  2.668e-04
 736.468  2.673e-04
 736.794  2.695e-04
 737.120  2.704e-04
 737.446  2.709e-04
 737.771  2.698e-04
 738.097  2.679e-04
 738.423  2.684e-04
 738.748  2.704e-04
 739.074  2.748e-04
 739.399  2.775e-04
 739.725  2.779e-04
 740.050  2.756e-04
 740.376  2.756e-04
 740.701  2.732e-04
 741.026  2.763e-04
 741.352  2.768e-04
 741.677  2.805e-04
 742.002  2.812e-04
 742.327  2.798e-04
 742.652  2.815e-04
 742.977  2.838e-04
 743.302  2.877e-04
 743.627  2.878e-04
 743.951  2.889e-04
 744.276  2.896e-04
 744.601  2.895e-04
 744.926  2.901e-04
 745.250  2.883e-04
 745.575  2.877e-04
 745.899  2.894e-04
 746.224  2.917e-04
 746.548  2.957e-04
 746.873  2.961e-04
 747.197  2.977e-04
 747.521  2.970e-04
 747.845  2.975e-04
 748.170  2.993e-04
 748.494  3.018e-04
 748.818  3.026e-04
 749.142  3.026e-04
 749.466  3.036e-04
 749.790  3.017e-04
 750.113  3.017e-04
 750.437  3.004e-04
 750.761  3.043e-04
 751.085  3.030e-04
 751.408  3.034e-04
 751.732  3.040e-04
 752.056  3.079e-04
 752.379  3.078e-04
 752.702  3.091e-04
 753.026  3.086e-04
 753.349  3.111e-04
 753.673  3.105e-04
 753.996  3.111e-04
 754.319  3.123e-04
 754.642  3.120e-04
 754.965  3.132e-04
 755.288  3.143e-04
 755.611  3.178e-04
 755.934  3.190e-04
 756.257  3.194e-04
 756.580  3.193e-04
 756.903  3.191e-04
 757.226  3.196e-04
 757.548  3.219e-04
 757.871  3.245e-04
 758.194  3.279e-04
 758.516  3.262e-04
 758.839  3.261e-04
 759.161  3.238e-04
 759.483  3.246e-04
 759.806  3.270e-04
 760.128  3.295e-04
 760.450  3.298e-04
 760.772  3.280e-04
 761.095  3.278e-04
 761.417  3.306e-04
 761.739  3.310e-04
 762.061  3.306e-04
 762.383  3.298e-04
 762.705  3.307e-04
 763.026  3.327e-04
 763.348  3.334e-04
 763.670  3.352e-04
 763.992  3.344e-04
 764.313  3.349e-04
 764.635  3.357e-04
 764.956  3.385e-04
 765.278  3.405e-04
 765.599  3.436e-04
 765.921  3.442e-04
 766.242  3.460e-04
 766.563  3.447e-04
 766.884  3.464e-04
 767.206  3.454e-04
 767.527  3.462e-04
 767.848  3.440e-04
 768.169  3.438e-04
 768.490  3.430e-04
 768.811  3.426e-04
 769.132  3.429e-04
 769.452  3.438e-04
 769.773  3.476e-04
 770.094  3.489e-04
 770.415  3.508e-04
 770.735  3.535e-04
 771.056  3.526e-04
 771.376  3.518e-04
 771.697  3.501e-04
 772.017  3.506e-04
 772.338  3.538e-04
 772.658  3.536e-04
 772.978  3.583e-04
 773.298  3.587e-04
 773.619  3.592e-04
 773.939  3.560e-04
 774.259  3.558e-04
 774.579  3.554e-04
 774.899  3.606e-04
 775.219  3.612e-04
 775.538  3.658e-04
 775.858  3.618e-04
 776.178  3.628e-04
 776.498  3.629e-04
 776.817  3.664e-04
 777.137  3.651e-04
 777.456  3.654e-04
 777.776  3.651e-04
 778.095  3.674e-04
 778.415  3.678e-04
 778.734  3.724e-04
 779.053  3.731e-04
 779.373  3.765e-04
 779.692  3.759e-04
 780.011  3.758e-04
 780.330  3.732e-04
 780.649  3.734e-04
 780.968  3.736e-04
 781.287  3.755e-04
 781.606  3.772e-04
 781.925  3.811e-04
 782.244  3.822e-04
 782.562  3.806e-04
 782.881  3.784e-04
 783.200  3.794e-04
 783.518  3.804e-04
 783.837  3.830e-04
 784.155  3.854e-04
 784.474  3.864e-04
 784.792  3.879e-04
 785.110  3.872e-04
 785.429  3.885e-04
 785.747  3.901e-04
 786.065  3.910e-04
 786.383  3.926e-04
 786.701  3.903e-04
 787.019  3.912e-04
 787.337  3.932e-04
 787.655  3.949e-04
 787.973  3.947e-04
 788.291  3.949e-04
 788.608  3.949e-04
 788.926  3.948e-04
 789.244  3.935e-04
 789.561  3.962e-04
 789.879  3.983e-04
 790.196  3.971e-04
 790.514  3.970e-04
 790.831  3.966e-04
 791.149  3.991e-04
 791.466  3.992e-04
 791.783  3.994e-04
 792.100  3.983e-04
 792.418  3.999e-04
 792.735  3.998e-04
 793.052  4.009e-04
 793.369  4.015e-04
 793.686  4.049e-04
 794.002  4.096e-04
 794.319  4.098e-04
 794.636  4.108e-04
 794.953  4.099e-04
 795.269  4.106e-04
 795.586  4.094e-04
 795.903  4.109e-04
 796.219  4.123e-04
 796.536  4.127e-04
 796.852  4.116e-04
 797.168  4.138e-04
 797.485  4.176e-04
 797.801  4.200e-04
 798.117  4.203e-04
 798.433  4.195e-04
 798.750  4.212e-04
 799.066  4.204e-04
 799.382  4.200e-04
 799.698  4.186e-04
 800.013  4.197e-04
 800.329  4.222e-04
 800.645  4.221e-04
 800.961  4.242e-04
 801.277  4.263e-04
 801.592  4.304e-04
 801.908  4.316e-04
 802.223  4.308e-04
 802.539  4.303e-04
 802.854  4.296e-04
 803.170  4.298e-04
 803.485  4.326e-04
 803.800  4.349e-04
 804.116  4.364e-04
 804.431  4.352e-04
 804.746  4.342e-04
 805.061  4.352e-04
 805.376  4.356e-04
 805.691  4.372e-04
 806.006  4.378e-04
 806.321  4.366e-04
 806.636  4.375e-04
 806.950  4.382e-04
 807.265  4.424e-04
 807.580  4.418e-04
 807.894  4.412e-04
 808.209  4.415e-04
 808.523  4.401e-04
 808.838  4.412e-04
 809.152  4.411e-04
 809.467  4.472e-04
 809.781  4.490e-04
 810.095  4.476e-04
 810.409  4.451e-04
 810.724  4.460e-04
 811.038  4.479e-04
 811.352  4.521e-04
 811.666  4.510e-04
 811.980  4.516e-04
 812.294  4.482e-04
 812.607  4.500e-04
 812.921  4.523e-04
 813.235  4.552e-04
 813.549  4.575e-04
 813.862  4.598e-04
 814.176  4.626e-04
 814.489  4.608e-04
 814.803  4.589e-04
 815.116  4.583e-04
 815.430  4.621e-04
 815.743  4.628e-04
 816.056  4.591e-04
 816.369  4.577e-04
 816.683  4.580e-04
 816.996  4.629e-04
 817.309  4.658e-04
 817.622  4.691e-04
 817.935  4.680e-04
 818.248  4.670e-04
 818.561  4.656e-04
 818.873  4.660e-04
 819.186  4.682e-04
 819.499  4.711e-04
 819.811  4.722e-04
 820.124  4.721e-04
 820.437  4.697e-04
 820.749  4.728e-04
 821.061  4.750e-04
 821.374  4.801e-04
 821.686  4.803e-04
 821.998  4.812e-04
 822.311  4.794e-04
 822.623  4.808e-04
 822.935  4.785e-04
 823.247  4.789e-04
 823.559  4.785e-04
 823.871  4.800e-04
 824.183  4.804e-04
 824.495  4.821e-04
 824.807  4.831e-04
 825.118  4.843e-04
 825.430  4.841e-04
 825.742  4.879e-04
 826.053  4.886e-04
 826.365  4.879e-04
 826.676  4.849e-04
 826.988  4.867e-04
 827.299  4.895e-04
 827.611  4.934e-04
 827.922  4.963e-04
 828.233  4.957e-04
 828.544  4.957e-04
 828.856  4.926e-04
 829.167  4.937e-04
 829.478  4.932e-04
 829.789  4.951e-04
 830.100  4.968e-04
 830.410  4.995e-04
 830.721  5.013e-04
 831.032  5.019e-04
 831.343  5.015e-04
 831.653  5.020e-04
 831.964  5.027e-04
 832.275  5.045e-04
 832.585  5.039e-04
 832.896  5.041e-04
 833.206  5.023e-04
 833.516  5.046e-04
 833.827  5.058e-04
 834.137  5.082e-04
 834.447  5.074e-04
 834.757  5.082e-04
 835.067  5.083e-04
 835.377  5.106e-04
 835.687  5.106e-04
 835.997  5.127e-04
 836.307  5.129e-04
 836.617  5.129e-04
 836.927  5.131e-04
 837.236  5.123e-04
 837.546  5.137e-04
 837.856  5.138e-04
 838.165  5.149e-04
 838.475  5.152e-04
 838.784  5.158e-04
 839.094  5.175e-04
 839.403  5.185e-04
 839.712  5.188e-04
 840.022  5.201e-04
 840.331  5.214e-04
 840.640  5.235e-04
 840.949  5.235e-04
 841.258  5.243e-04
 841.567  5.243e-04
 841.876  5.231e-04
 842.185  5.228e-04
 842.494  5.239e-04
 842.802  5.268e-04
 843.111  5.284e-04
 843.420  5.272e-04
 843.728  5.264e-04
 844.037  5.269e-04
 844.346  5.289e-04
 844.654  5.306e-04
 844.962  5.309e-04
 845.271  5.335e-04
 845.579  5.346e-04
 845.887  5.358e-04
 846.196  5.323e-04
 846.504  5.319e-04
 846.812  5.330e-04
 847.120  5.353e-04
 847.428  5.348e-04
 847.736  5.340e-04
 848.044  5.350e-04
 848.351  5.356e-04
 848.659  5.382e-04
 848.967  5.396e-04
 849.275  5.405e-04
 849.582  5.387e-04
 849.890  5.380e-04
 850.197  5.388e-04
 850.505  5.411e-04
 850.812  5.418e-04
 851.120  5.420e-04
 851.427  5.416e-04
 851.734  5.437e-04
 852.041  5.442e-04
 852.349  5.456e-04
 852.656  5.455e-04
 852.963  5.461e-04
 853.270  5.468e-04
 853.577  5.477e-04
 853.883  5.506e-04
 854.190  5.499e-04
 854.497  5.485e-04
 854.804  5.456e-04
 855.110  5.463e-04
 855.417  5.498e-04
 855.724  5.510e-04
 856.030  5.503e-04
 856.337  5.475e-04
 856.643  5.508e-04
 856.949  5.532e-04
 857.256  5.556e-04
 857.562  5.556e-04
 857.868  5.555e-04
 858.174  5.549e-04
 858.480  5.579e-04
 858.786  5.590e-04
 859.092  5.601e-04
 859.398  5.585e-04
 859.704  5.603e-04
 860.010  5.627e-04
 860.316  5.630e-04
 860.622  5.632e-04
 860.927  5.654e-04
 861.233  5.676e-04
 861.538  5.679e-04
 861.844  5.672e-04
 862.149  5.668e-04
 862.455  5.686e-04
 862.760  5.687e-04
 863.065  5.702e-04
 863.371  5.701e-04
 863.676  5.703e-04
 863.981  5.700e-04
 864.286  5.707e-04
 864.591  5.715e-04
 864.896  5.718e-04
 865.201  5.714e-04
 865.506  5.747e-04
 865.811  5.769e-04
 866.115  5.797e-04
 866.420  5.783e-04
 866.725  5.774e-04
 867.029  5.772e-04
 867.334  5.795e-04
 867.638  5.805e-04
 867.943  5.819e-04
 868.247  5.818e-04
 868.552  5.801e-04
 868.856  5.782e-04
 869.160  5.797e-04
 869.464  5.831e-04
 869.768  5.864e-04
 870.073  5.845e-04
 870.377  5.878e-04
 870.681  5.877e-04
 870.984  5.874e-04
 871.288  5.858e-04
 871.592  5.875e-04
 871.896  5.904e-04
 872.200  5.922e-04
 872.503  5.943e-04
 872.807  5.956e-04
 873.110  5.933e-04
 873.414  5.904e-04
 873.717  5.889e-04
 874.021  5.905e-04
 874.324  5.895e-04
 874.627  5.931e-04
 874.931  5.953e-04
 875.234  6.002e-04
 875.537  6.005e-04
 875.840  6.004e-04
 876.143  5.999e-04
 876.446  6.008e-04
 876.749  6.018e-04
 877.052  6.043e-04
 877.354  6.029e-04
 877.657  6.022e-04
 877.960  6.012e-04
 878.262  6.019e-04
 878.565  6.054e-04
 878.868  6.063e-04
 879.170  6.076e-04
 879.473  6.087e-04
 879.775  6.102e-04
 880.077  6.120e-04
 880.379  6.125e-04
 880.682  6.122e-04
 880.984  6.125e-04
 881.286  6.085e-04
 881.588  6.096e-04
 881.890  6.097e-04
 882.192  6.126e-04
 882.494  6.147e-04
 882.796  6.174e-04
 883.097  6.210e-04
 883.399  6.213e-04
 883.701  6.217e-04
 884.002  6.205e-04
 884.304  6.195e-04
 884.606  6.185e-04
 884.907  6.185e-04
 885.208  6.200e-04
 885.510  6.208e-04
 885.811  6.216e-04
 886.112  6.231e-04
 886.414  6.232e-04
 886.715  6.225e-04
 887.016  6.222e-04
 887.317  6.215e-04
 887.618  6.244e-04
 887.919  6.232e-04
 888.220  6.261e-04
 888.520  6.234e-04
 888.821  6.232e-04
 889.122  6.207e-04
 889.423  6.234e-04
 889.723  6.225e-04
 890.024  6.255e-04
 890.324  6.220e-04
 890.625  6.256e-04
 890.925  6.236e-04
 891.225  6.250e-04
 891.526  6.283e-04
 891.826  6.302e-04
 892.126  6.321e-04
 892.426  6.270e-04
 892.726  6.264e-04
 893.026  6.304e-04
 893.326  6.331e-04
 893.626  6.361e-04
 893.926  6.321e-04
 894.226  6.306e-04
 894.526  6.301e-04
 894.825  6.338e-04
 895.125  6.355e-04
 895.424  6.357e-04
 895.724  6.345e-04
 896.023  6.352e-04
 896.323  6.372e-04
 896.622  6.384e-04
 896.922  6.419e-04
 897.221  6.433e-04
 897.520  6.425e-04
 897.819  6.422e-04
 898.118  6.415e-04
 898.417  6.440e-04
 898.716  6.406e-04
 899.015  6.430e-04
 899.314  6.467e-04
 899.613  6.505e-04
 899.912  6.479e-04
 900.210  6.431e-04
 900.509  6.446e-04
 900.808  6.487e-04
 901.106  6.526e-04
 901.405  6.499e-04
 901.703  6.485e-04
 902.002  6.479e-04
 902.300  6.515e-04
 902.598  6.530e-04
 902.897  6.536e-04
 903.195  6.488e-04
 903.493  6.500e-04
 903.791  6.518e-04
 904.089  6.553e-04
 904.387  6.530e-04
 904.685  6.549e-04
 904.983  6.542e-04
 905.281  6.594e-04
 905.578  6.606e-04
 905.876  6.638e-04
 906.174  6.621e-04
 906.471  6.601e-04
 906.769  6.643e-04
 907.066  6.641e-04
 907.364  6.632e-04
 907.661  6.640e-04
 907.958  6.636e-04
 908.256  6.646e-04
 908.553  6.649e-04
 908.850  6.673e-04
 909.147  6.691e-04
 909.444  6.679e-04
 909.741  6.700e-04
 910.038  6.696e-04
 910.335  6.714e-04
 910.632  6.711e-04
 910.929  6.741e-04
 911.225  6.716e-04
 911.522  6.705e-04
 911.819  6.693e-04
 912.115  6.730e-04
 912.412  6.704e-04
 912.708  6.702e-04
 913.005  6.674e-04
 913.301  6.738e-04
 913.597  6.782e-04
 913.893  6.813e-04
 914.190  6.820e-04
 914.486  6.789e-04
 914.782  6.779e-04
 915.078  6.750e-04
 915.374  6.760e-04
 915.670  6.789e-04
 915.966  6.819e-04
 916.261  6.864e-04
 916.557  6.839e-04
 916.853  6.871e-04
 917.148  6.872e-04
 917.444  6.927e-04
 917.740  6.901e-04
 918.035  6.890e-04
 918.330  6.860e-04
 918.626  6.870e-04
 918.921  6.847e-04
 919.216  6.866e-04
 919.512  6.821e-04
 919.807  6.845e-04
 920.102  6.836e-04
 920.397  6.893e-04
 920.692  6.934e-04
 920.987  6.932e-04
 921.282  6.936e-04
 921.577  6.874e-04
 921.871  6.892e-04
 922.166  6.919e-04
 922.461  6.959e-04
 922.755  6.992e-04
 923.050  6.986e-04
 923.344  6.984e-04
 923.639  6.950e-04
 923.933  6.971e-04
 924.227  6.997e-04
 924.522  7.013e-04
 924.816  6.998e-04
 925.110  6.985e-04
 925.404  7.015e-04
 925.698  7.044e-04
 925.992  7.065e-04
 926.286  7.028e-04
 926.580  6.998e-04
 926.874  6.971e-04
 927.168  7.003e-04
 927.462  7.028e-04
 927.755  7.053e-04
 928.049  7.062e-04
 928.342  7.075e-04
 928.636  7.075e-04
 928.929  7.070e-04
 929.223  7.034e-04
 929.516  7.093e-04
 929.810  7.096e-04
 930.103  7.113e-04
 930.396  7.058e-04
 930.689  7.047e-04
 930.982  7.070e-04
 931.275  7.092e-04
 931.568  7.075e-04
 931.861  7.075e-04
 932.154  7.029e-04
 932.447  7.075e-04
 932.740  7.046e-04
 933.032  7.076e-04
 933.325  7.063e-04
 933.617  7.098e-04
 933.910  7.144e-04
 934.202  7.155e-04
 934.495  7.145e-04
 934.787  7.124e-04
 935.080  7.142e-04
 935.372  7.147e-04
 935.664  7.221e-04
 935.956  7.181e-04
 936.248  7.158e-04
 936.540  7.084e-04
 936.832  7.108e-04
 937.124  7.090e-04
 937.416  7.096e-04
 937.708  7.111e-04
 938.000  7.174e-04
 938.291  7.207e-04
 938.583  7.216e-04
 938.875  7.199e-04
 939.166  7.117e-04
 939.458  7.076e-04
 939.749  7.128e-04
 940.041  7.213e-04
 940.332  7.252e-04
 940.623  7.195e-04
 940.914  7.131e-04
 941.206  7.099e-04
 941.497  7.100e-04
 941.788  7.108e-04
 942.079  7.084e-04
 942.370  7.094e-04
 942.661  7.146e-04
 942.951  7.206e-04
 943.242  7.188e-04
 943.533  7.180e-04
 943.824  7.163e-04
 944.114  7.151e-04
 944.405  7.168e-04
 944.695  7.156e-04
 944.986  7.185e-04
 945.276  7.133e-04
 945.566  7.168e-04
 945.857  7.209e-04
 946.147  7.227e-04
 946.437  7.244e-04
 946.727  7.191e-04
 947.017  7.216e-04
 947.307  7.178e-04
 947.597  7.204e-04
 947.887  7.179e-04
 948.177  7.180e-04
 948.467  7.154e-04
 948.757  7.178e-04
 949.046  7.201e-04
 949.336  7.220e-04
 949.625  7.277e-04
 949.915  7.283e-04
 950.204  7.325e-04
 950.494  7.232e-04
 950.783  7.270e-04
 951.072  7.222e-04
 951.362  7.288e-04
 951.651  7.236e-04
 951.940  7.272e-04
 952.229  7.208e-04
 952.518  7.226e-04
 952.807  7.151e-04
 953.096  7.210e-04
 953.385  7.207e-04
 953.674  7.232e-04
 953.962  7.222e-04
 954.251  7.192e-04
 954.540  7.221e-04
 954.828  7.221e-04
 955.117  7.231e-04
 955.405  7.166e-04
 955.694  7.203e-04
 955.982  7.193e-04
 956.270  7.295e-04
 956.559  7.238e-04
 956.847  7.275e-04
 957.135  7.264e-04
 957.423  7.247e-04
 957.711  7.204e-04
 957.999  7.216e-04
 958.287  7.244e-04
 958.575  7.282e-04
 958.863  7.268e-04
 959.150  7.177e-04
 959.438  7.118e-04
 959.726  7.053e-04
 960.013  7.144e-04
 960.301  7.152e-04
 960.588  7.194e-04
 960.876  7.163e-04
 961.163  7.222e-04
 961.450  7.261e-04
 961.738  7.206e-04
 962.025  7.165e-04
 962.312  7.173e-04
 962.599  7.253e-04
 962.886  7.280e-04
 963.173  7.239e-04
 963.460  7.250e-04
 963.747  7.199e-04
 964.034  7.246e-04
 964.320  7.208e-04
 964.607  7.284e-04
 964.894  7.184e-04
 965.180  7.151e-04
 965.467  7.045e-04
 965.753  7.105e-04
 966.040  7.128e-04
 966.326  7.249e-04
 966.612  7.256e-04
 966.899  7.253e-04
 967.185  7.119e-04
 967.471  7.167e-04
 967.757  7.203e-04
 968.043  7.216e-04
 968.329  7.148e-04
 968.615  7.154e-04
 968.901  7.248e-04
 969.187  7.236e-04
 969.472  7.276e-04
 969.758  7.225e-04
 970.044  7.247e-04
 970.329  7.196e-04
 970.615  7.151e-04
 970.900  7.115e-04
 971.186  7.121e-04
 971.471  7.146e-04
 971.756  7.192e-04
 972.042  7.190e-04
 972.327  7.181e-04
 972.612  7.232e-04
 972.897  7.152e-04
 973.182  7.212e-04
 973.467  7.140e-04
 973.752  7.142e-04
 974.037  7.078e-04
 974.322  7.031e-04
 974.606  6.946e-04
 974.891  7.061e-04
 975.176  7.106e-04
 975.460  7.187e-04
 975.745  7.050e-04
 976.029  6.954e-04
 976.314  7.034e-04
 976.598  7.000e-04
 976.882  7.013e-04
 977.167  7.030e-04
 977.451  7.105e-04
 977.735  7.174e-04
 978.019  7.014e-04
 978.303  7.048e-04
 978.587  7.016e-04
 978.871  7.107e-04
 979.155  7.100e-04
 979.439  7.096e-04
 979.722  7.111e-04
 980.006  6.927e-04
 980.290  6.871e-04
 980.573  6.819e-04
 980.857  6.883e-04
 981.140  6.904e-04
 981.424  6.930e-04
 981.707  7.015e-04
 981.990  6.973e-04
 982.273  6.956e-04
 982.557  6.845e-04
 982.840  6.906e-04
 983.123  6.830e-04
 983.406  6.760e-04
 983.689  6.722e-04
 983.972  6.787e-04
 984.255  6.846e-04
 984.537  6.835e-04
 984.820  6.736e-04
 985.103  6.861e-04
 985.385  6.825e-04
 985.668  6.942e-04
 985.951  6.850e-04
 986.233  6.939e-04
 986.515  6.772e-04
 986.798  6.798e-04
 987.080  6.674e-04
 987.362  6.886e-04
 987.644  6.896e-04
 987.927  7.109e-04
 988.209  6.966e-04
 988.491  6.964e-04
 988.773  6.911e-04
 989.055  7.052e-04
 989.336  7.018e-04
 989.618  6.988e-04
 989.900  6.679e-04
 990.182  6.614e-04
 990.463  6.623e-04
 990.745  6.721e-04
 991.026  6.647e-04
 991.308  6.535e-04
 991.589  6.525e-04
 991.870  6.660e-04
 992.152  6.757e-04
 992.433  6.893e-04
 992.714  6.887e-04
 992.995  6.870e-04
 993.276  6.762e-04
 993.557  6.693e-04
 993.838  6.731e-04
 994.119  6.772e-04
 994.400  6.813e-04
 994.681  6.605e-04
 994.961  6.615e-04
 995.242  6.866e-04
 995.523  6.727e-04
 995.803  6.835e-04
 996.084  6.562e-04
 996.364  6.766e-04
 996.645  6.665e-04
 996.925  6.891e-04
 997.205  6.951e-04
 997.485  6.914e-04
 997.766  6.671e-04
 998.046  6.688e-04
 998.326  6.668e-04
 998.606  6.673e-04
 998.886  6.706e-04
 999.166  6.628e-04
 999.445  6.816e-04
 999.725  6.638e-04
1000.005  6.748e-04
1000.284  6.880e-04
1000.564  7.169e-04
1000.844  7.357e-04
1001.123  7.285e-04
1001.402  7.180e-04
1001.682  6.926e-04
1001.961  6.744e-04
1002.240  6.639e-04
1002.520  6.826e-04
1002.799  6.905e-04
1003.078  6.810e-04
1003.357  6.536e-04
1003.636  6.516e-04
1003.915  6.868e-04
1004.194  6.956e-04
1004.472  6.939e-04
1004.751  7.005e-04
1005.030  7.257e-04
1005.309  6.993e-04
1005.587  6.940e-04
1005.866  6.805e-04
1006.144  6.915e-04
1006.422  6.444e-04
1006.701  6.328e-04
1006.979  6.558e-04
1007.257  6.508e-04
1007.536  6.800e-04
1007.814  6.664e-04
1008.092  7.340e-04
1008.370  7.123e-04
1008.648  6.915e-04
1008.926  6.770e-04
1009.203  6.782e-04
1009.481  7.251e-04
1009.759  6.958e-04
1010.037  6.612e-04
1010.314  6.213e-04
1010.592  6.203e-04
1010.869  6.783e-04
1011.147  7.047e-04
1011.424  6.825e-04
1011.701  6.772e-04
1011.979  6.595e-04
1012.256  7.237e-04
1012.533  7.014e-04
1012.810  7.240e-04
1013.087  6.867e-04
1013.364  6.534e-04
1013.641  5.978e-04
1013.918  5.596e-04
1014.195  5.596e-04
