Data from ha05_c16L_FLMS070571_001.txt Node
Date: Tue Apr 10 13:17:57 EDT 2018
User: peter
Spectrometer: FLMS07057
Trigger mode: 0
Integration Time (sec): 1.000000E1
Scans to average: 2
Electric dark correction enabled: true
Nonlinearity correction enabled: false
Boxcar width: 0
XAxis mode: Wavelengths
Number of Pixels in Spectrum: 2048
>>>>>Begin Spectral Data<<<<<
 339.015 -1.940e-03
 339.393 -1.940e-03
 339.770  5.354e-04
 340.148  8.570e-04
 340.526  1.473e-03
 340.904  8.228e-05
 341.281  6.615e-05
 341.659 -2.292e-03
 342.036 -2.916e-03
 342.414 -3.662e-03
 342.791 -1.682e-03
 343.169 -1.340e-03
 343.546 -5.164e-04
 343.923 -3.997e-04
 344.301 -1.364e-03
 344.678 -1.210e-03
 345.055 -8.079e-04
 345.432  2.406e-04
 345.810  4.933e-04
 346.187  8.479e-04
 346.564  4.774e-04
 346.941 -3.789e-05
 347.318 -4.820e-04
 347.695 -3.289e-04
 348.071  9.030e-05
 348.448  6.315e-05
 348.825  6.741e-05
 349.202  3.664e-05
 349.578  3.585e-05
 349.955  2.207e-05
 350.332  1.323e-05
 350.708  3.227e-05
 351.085  2.852e-05
 351.461  4.549e-05
 351.838  5.179e-05
 352.214  5.611e-05
 352.591  4.525e-05
 352.967  5.112e-05
 353.343  3.780e-05
 353.719  2.101e-05
 354.096  1.606e-05
 354.472  1.760e-05
 354.848  3.987e-05
 355.224  3.089e-05
 355.600  3.084e-05
 355.976  2.514e-05
 356.352  3.949e-06
 356.728  1.348e-05
 357.104  2.692e-05
 357.479  6.027e-05
 357.855  5.187e-05
 358.231  3.220e-05
 358.607  1.982e-05
 358.982  3.241e-05
 359.358  3.496e-05
 359.734  3.024e-05
 360.109  1.701e-05
 360.484  1.754e-05
 360.860  1.874e-05
 361.235  2.745e-05
 361.611  2.860e-05
 361.986  3.724e-05
 362.361  3.292e-05
 362.736  3.411e-05
 363.112  2.532e-05
 363.487  2.897e-05
 363.862  1.609e-05
 364.237  2.268e-05
 364.612  2.033e-05
 364.987  2.477e-05
 365.362  1.472e-05
 365.737  8.383e-06
 366.112  1.361e-05
 366.486  2.095e-05
 366.861  2.075e-05
 367.236  2.374e-05
 367.610  2.198e-05
 367.985  2.528e-05
 368.360  1.709e-05
 368.734  1.771e-05
 369.109  1.422e-05
 369.483  1.508e-05
 369.858  1.607e-05
 370.232  1.535e-05
 370.606  1.718e-05
 370.981  1.681e-05
 371.355  2.787e-05
 371.729  2.603e-05
 372.103  2.082e-05
 372.477  1.189e-05
 372.851  8.359e-06
 373.225  7.297e-06
 373.599  7.107e-06
 373.973  8.352e-06
 374.347  1.378e-05
 374.721  1.801e-05
 375.095  2.005e-05
 375.469  7.796e-06
 375.842  1.676e-06
 376.216  2.504e-06
 376.590  1.321e-05
 376.963  1.214e-05
 377.337  1.002e-05
 377.710  4.769e-06
 378.084  7.160e-06
 378.457  6.369e-06
 378.831  6.655e-06
 379.204  7.137e-06
 379.577  5.586e-06
 379.951  1.238e-05
 380.324  1.727e-05
 380.697  1.914e-05
 381.070  1.388e-05
 381.443  9.827e-06
 381.816  8.705e-06
 382.189  1.093e-05
 382.562  1.228e-05
 382.935  1.056e-05
 383.308  5.611e-06
 383.681  1.772e-06
 384.054  1.793e-06
 384.426 -8.382e-07
 384.799  2.117e-06
 385.172  9.224e-07
 385.544  4.638e-06
 385.917 -4.843e-07
 386.290  1.032e-06
 386.662 -9.966e-07
 387.034  3.737e-07
 387.407  3.803e-06
 387.779  5.946e-06
 388.152  5.506e-06
 388.524 -2.116e-07
 388.896  5.717e-08
 389.268  3.622e-06
 389.640  5.469e-06
 390.013  4.928e-06
 390.385  6.357e-06
 390.757  6.297e-06
 391.129  9.019e-06
 391.500  6.764e-06
 391.872  7.452e-06
 392.244  6.001e-06
 392.616  3.681e-06
 392.988  4.192e-06
 393.360  2.950e-06
 393.731  3.281e-06
 394.103  4.153e-06
 394.474  4.750e-06
 394.846  5.867e-06
 395.217  6.383e-06
 395.589  7.595e-06
 395.960  7.068e-06
 396.332  5.766e-06
 396.703  5.755e-06
 397.074  5.219e-06
 397.446  4.743e-06
 397.817  3.341e-06
 398.188  4.623e-06
 398.559  4.453e-06
 398.930  6.019e-06
 399.301  6.527e-06
 399.672  5.453e-06
 400.043  3.002e-06
 400.414  2.018e-06
 400.785  2.985e-06
 401.156  4.065e-06
 401.526  4.162e-06
 401.897  3.713e-06
 402.268  4.839e-06
 402.638  4.396e-06
 403.009  3.516e-06
 403.380  1.565e-06
 403.750  1.582e-06
 404.121  4.384e-06
 404.491  3.079e-06
 404.861  2.818e-06
 405.232  1.596e-06
 405.602  4.942e-06
 405.972  5.493e-06
 406.342  4.434e-06
 406.713  3.813e-06
 407.083  3.296e-06
 407.453  4.338e-06
 407.823  2.832e-06
 408.193  3.505e-06
 408.563  3.171e-06
 408.933  3.628e-06
 409.302  3.070e-06
 409.672  2.248e-06
 410.042  1.830e-06
 410.412  1.467e-06
 410.781  2.433e-06
 411.151  3.162e-06
 411.521  3.589e-06
 411.890  2.793e-06
 412.260  1.886e-06
 412.629  1.270e-06
 412.999  2.321e-06
 413.368  2.543e-06
 413.737  2.476e-06
 414.107  2.104e-06
 414.476  2.800e-06
 414.845  2.775e-06
 415.214  2.542e-06
 415.583  2.294e-06
 415.952  3.606e-06
 416.322  4.320e-06
 416.691  3.963e-06
 417.059  2.919e-06
 417.428  1.941e-06
 417.797  1.949e-06
 418.166  1.713e-06
 418.535  2.668e-06
 418.904  3.354e-06
 419.272  4.599e-06
 419.641  4.265e-06
 420.009  3.161e-06
 420.378  1.599e-06
 420.747  1.797e-06
 421.115  3.129e-06
 421.483  3.791e-06
 421.852  2.650e-06
 422.220  1.785e-06
 422.588  1.007e-06
 422.957  3.869e-07
 423.325 -3.395e-07
 423.693  1.135e-06
 424.061  1.604e-06
 424.429  1.936e-06
 424.797  1.730e-06
 425.165  1.779e-06
 425.533  1.236e-06
 425.901  4.991e-07
 426.269  1.039e-06
 426.637  1.625e-06
 427.005  1.623e-06
 427.372  1.872e-06
 427.740  2.158e-06
 428.108  2.951e-06
 428.475  2.446e-06
 428.843  2.342e-06
 429.210  2.030e-06
 429.578  1.343e-06
 429.945  1.386e-06
 430.312  1.021e-06
 430.680  2.071e-06
 431.047  1.863e-06
 431.414  1.520e-06
 431.782  6.251e-07
 432.149  1.545e-07
 432.516  8.857e-07
 432.883  1.324e-06
 433.250  1.723e-06
 433.617  1.293e-06
 433.984  1.176e-06
 434.351  1.626e-06
 434.718  1.391e-06
 435.084  2.103e-06
 435.451  1.136e-06
 435.818  1.317e-06
 436.184  1.172e-06
 436.551  2.533e-06
 436.918  2.421e-06
 437.284  2.118e-06
 437.651  1.767e-06
 438.017  1.462e-06
 438.384  1.245e-06
 438.750  7.945e-07
 439.116  1.412e-06
 439.483  1.688e-06
 439.849  1.402e-06
 440.215  1.058e-06
 440.581  3.298e-07
 440.947  5.880e-07
 441.313  8.710e-07
 441.679  1.571e-06
 442.045  1.025e-06
 442.411  5.954e-07
 442.777  4.439e-07
 443.143  7.206e-07
 443.509  1.060e-06
 443.874  7.101e-07
 444.240  7.661e-07
 444.606  4.589e-07
 444.971  6.559e-07
 445.337  6.918e-07
 445.703  1.255e-06
 446.068  1.301e-06
 446.433  8.036e-07
 446.799 -4.675e-08
 447.164  2.355e-08
 447.530  6.924e-07
 447.895  9.275e-07
 448.260  7.171e-07
 448.625  5.311e-07
 448.990  6.539e-07
 449.355  8.074e-07
 449.720  7.656e-07
 450.085  1.131e-06
 450.450  1.186e-06
 450.815  1.062e-06
 451.180  5.917e-07
 451.545  9.203e-07
 451.910  1.938e-06
 452.275  2.270e-06
 452.639  1.902e-06
 453.004  9.509e-07
 453.369  5.985e-07
 453.733  4.766e-07
 454.098  4.812e-07
 454.462  8.382e-07
 454.826  8.754e-07
 455.191  1.166e-06
 455.555  7.355e-07
 455.919  1.046e-06
 456.284  8.214e-07
 456.648  9.021e-07
 457.012  4.722e-07
 457.376  5.309e-07
 457.740  5.214e-07
 458.104  9.790e-07
 458.468  1.355e-06
 458.832  1.596e-06
 459.196  1.274e-06
 459.560  8.988e-07
 459.924  1.081e-06
 460.288  1.098e-06
 460.651  7.866e-07
 461.015  7.127e-07
 461.379  9.131e-07
 461.742  8.474e-07
 462.106  6.925e-07
 462.469  6.597e-07
 462.833  8.792e-07
 463.196  6.371e-07
 463.559  4.381e-07
 463.923  4.741e-07
 464.286  8.399e-07
 464.649  6.051e-07
 465.012  8.799e-07
 465.376  6.829e-07
 465.739  1.128e-06
 466.102  9.516e-07
 466.465  8.112e-07
 466.828  8.940e-07
 467.191  8.229e-07
 467.553  1.070e-06
 467.916  8.519e-07
 468.279  8.050e-07
 468.642  5.570e-07
 469.004  3.628e-07
 469.367  8.102e-07
 469.730  7.404e-07
 470.092  7.362e-07
 470.455  5.956e-07
 470.817  7.619e-07
 471.180  8.364e-07
 471.542  6.195e-07
 471.904  5.524e-07
 472.267  6.172e-07
 472.629  6.961e-07
 472.991  7.401e-07
 473.353  6.984e-07
 473.715  9.496e-07
 474.078  9.348e-07
 474.440  7.744e-07
 474.802  4.633e-07
 475.163  3.513e-07
 475.525  2.434e-07
 475.887  2.001e-07
 476.249  1.762e-07
 476.611  3.000e-07
 476.972  1.122e-07
 477.334  2.224e-07
 477.696  2.585e-07
 478.057  3.302e-07
 478.419  2.734e-07
 478.780  4.338e-07
 479.142  4.099e-07
 479.503  4.652e-07
 479.865  4.304e-07
 480.226  6.782e-07
 480.587  9.584e-07
 480.948  1.020e-06
 481.310  8.958e-07
 481.671  6.090e-07
 482.032  4.037e-07
 482.393  3.576e-07
 482.754  2.898e-07
 483.115  5.726e-07
 483.476  7.839e-07
 483.837  9.096e-07
 484.197  5.530e-07
 484.558  3.462e-07
 484.919  1.899e-07
 485.280  3.117e-07
 485.640  3.787e-07
 486.001  4.333e-07
 486.361  4.356e-07
 486.722  2.991e-07
 487.082  3.503e-07
 487.443  1.275e-07
 487.803  1.395e-07
 488.163  2.310e-09
 488.524  7.644e-08
 488.884  1.799e-07
 489.244  2.473e-07
 489.604  3.041e-07
 489.964  3.618e-07
 490.324  4.866e-07
 490.684  4.815e-07
 491.044  3.944e-07
 491.404  3.357e-07
 491.764  2.680e-07
 492.124  1.691e-07
 492.484  1.288e-07
 492.843  1.584e-07
 493.203  1.049e-07
 493.563  9.682e-08
 493.922  1.654e-07
 494.282  1.588e-07
 494.642  1.612e-07
 495.001  1.618e-07
 495.360  2.798e-07
 495.720  2.672e-07
 496.079  2.955e-07
 496.438  3.620e-07
 496.798  4.140e-07
 497.157  3.687e-07
 497.516  3.898e-07
 497.875  2.837e-07
 498.234  4.249e-07
 498.593  3.252e-07
 498.952  3.639e-07
 499.311  3.265e-07
 499.670  2.725e-07
 500.029  2.211e-07
 500.388  2.062e-07
 500.746  3.642e-07
 501.105  4.361e-07
 501.464  4.390e-07
 501.822  3.400e-07
 502.181  3.572e-07
 502.539  3.529e-07
 502.898  4.015e-07
 503.256  3.474e-07
 503.615  2.395e-07
 503.973  1.728e-07
 504.331  2.823e-07
 504.690  3.986e-07
 505.048  5.015e-07
 505.406  3.725e-07
 505.764  2.449e-07
 506.122  2.055e-07
 506.480  1.732e-07
 506.838  2.773e-07
 507.196  2.801e-07
 507.554  2.692e-07
 507.912  2.732e-07
 508.270  3.532e-07
 508.627  4.473e-07
 508.985  3.545e-07
 509.343  1.958e-07
 509.700  2.331e-07
 510.058  3.085e-07
 510.415  2.994e-07
 510.773  2.148e-07
 511.130  2.547e-07
 511.488  3.570e-07
 511.845  4.349e-07
 512.202  5.175e-07
 512.560  5.077e-07
 512.917  4.974e-07
 513.274  3.804e-07
 513.631  3.442e-07
 513.988  3.330e-07
 514.345  3.831e-07
 514.702  4.730e-07
 515.059  5.059e-07
 515.416  4.618e-07
 515.773  3.579e-07
 516.130  2.005e-07
 516.486  2.545e-07
 516.843  2.728e-07
 517.200  4.973e-07
 517.556  4.166e-07
 517.913  5.020e-07
 518.269  3.709e-07
 518.626  4.958e-07
 518.982  4.086e-07
 519.339  4.530e-07
 519.695  3.603e-07
 520.051  3.030e-07
 520.408  2.568e-07
 520.764  2.150e-07
 521.120  4.136e-07
 521.476  4.562e-07
 521.832  5.462e-07
 522.188  4.328e-07
 522.544  4.285e-07
 522.900  4.255e-07
 523.256  4.467e-07
 523.612  4.312e-07
 523.968  4.625e-07
 524.323  4.437e-07
 524.679  5.393e-07
 525.035  5.453e-07
 525.390  5.534e-07
 525.746  5.775e-07
 526.102  5.352e-07
 526.457  5.442e-07
 526.812  4.494e-07
 527.168  4.199e-07
 527.523  4.640e-07
 527.878  4.973e-07
 528.234  5.919e-07
 528.589  5.919e-07
 528.944  5.809e-07
 529.299  5.948e-07
 529.654  5.670e-07
 530.009  5.453e-07
 530.364  4.817e-07
 530.719  4.779e-07
 531.074  5.367e-07
 531.429  5.407e-07
 531.784  5.907e-07
 532.138  5.609e-07
 532.493  5.887e-07
 532.848  6.019e-07
 533.202  6.370e-07
 533.557  6.575e-07
 533.911  6.257e-07
 534.266  6.557e-07
 534.620  5.846e-07
 534.975  5.450e-07
 535.329  4.545e-07
 535.683  5.508e-07
 536.038  6.048e-07
 536.392  5.940e-07
 536.746  5.209e-07
 537.100  5.721e-07
 537.454  6.642e-07
 537.808  6.563e-07
 538.162  6.413e-07
 538.516  5.951e-07
 538.870  6.793e-07
 539.224  7.077e-07
 539.577  7.530e-07
 539.931  7.535e-07
 540.285  6.757e-07
 540.639  7.340e-07
 540.992  7.019e-07
 541.346  7.760e-07
 541.699  7.310e-07
 542.053  6.999e-07
 542.406  6.711e-07
 542.759  6.591e-07
 543.113  6.845e-07
 543.466  7.087e-07
 543.819  7.311e-07
 544.172  7.980e-07
 544.526  7.790e-07
 544.879  7.374e-07
 545.232  7.364e-07
 545.585  8.017e-07
 545.938  8.763e-07
 546.291  8.375e-07
 546.643  7.905e-07
 546.996  7.247e-07
 547.349  8.017e-07
 547.702  8.983e-07
 548.054  9.636e-07
 548.407  9.867e-07
 548.760  1.034e-06
 549.112  1.077e-06
 549.465  1.011e-06
 549.817  9.322e-07
 550.169  8.631e-07
 550.522  9.055e-07
 550.874  8.761e-07
 551.226  9.458e-07
 551.579  9.654e-07
 551.931  1.035e-06
 552.283  1.000e-06
 552.635  9.946e-07
 552.987  1.005e-06
 553.339  1.098e-06
 553.691  1.211e-06
 554.043  1.239e-06
 554.395  1.244e-06
 554.746  1.250e-06
 555.098  1.268e-06
 555.450  1.316e-06
 555.802  1.238e-06
 556.153  1.280e-06
 556.505  1.333e-06
 556.856  1.397e-06
 557.208  1.441e-06
 557.559  1.402e-06
 557.911  1.440e-06
 558.262  1.414e-06
 558.613  1.460e-06
 558.964  1.488e-06
 559.316  1.548e-06
 559.667  1.557e-06
 560.018  1.566e-06
 560.369  1.598e-06
 560.720  1.615e-06
 561.071  1.641e-06
 561.422  1.673e-06
 561.773  1.693e-06
 562.124  1.760e-06
 562.474  1.702e-06
 562.825  1.779e-06
 563.176  1.714e-06
 563.526  1.794e-06
 563.877  1.816e-06
 564.228  1.928e-06
 564.578  2.004e-06
 564.928  2.054e-06
 565.279  2.035e-06
 565.629  2.090e-06
 565.980  2.068e-06
 566.330  2.153e-06
 566.680  2.147e-06
 567.030  2.300e-06
 567.380  2.251e-06
 567.730  2.278e-06
 568.080  2.181e-06
 568.430  2.307e-06
 568.780  2.365e-06
 569.130  2.518e-06
 569.480  2.490e-06
 569.830  2.471e-06
 570.180  2.406e-06
 570.529  2.493e-06
 570.879  2.560e-06
 571.229  2.650e-06
 571.578  2.675e-06
 571.928  2.718e-06
 572.277  2.733e-06
 572.627  2.736e-06
 572.976  2.730e-06
 573.325  2.822e-06
 573.675  2.941e-06
 574.024  2.956e-06
 574.373  2.980e-06
 574.722  3.000e-06
 575.071  3.116e-06
 575.420  3.052e-06
 575.769  3.049e-06
 576.118  3.125e-06
 576.467  3.213e-06
 576.816  3.340e-06
 577.165  3.361e-06
 577.514  3.429e-06
 577.863  3.386e-06
 578.211  3.303e-06
 578.560  3.329e-06
 578.908  3.470e-06
 579.257  3.549e-06
 579.606  3.547e-06
 579.954  3.443e-06
 580.302  3.537e-06
 580.651  3.620e-06
 580.999  3.760e-06
 581.347  3.788e-06
 581.696  3.889e-06
 582.044  3.931e-06
 582.392  3.954e-06
 582.740  3.847e-06
 583.088  3.861e-06
 583.436  3.955e-06
 583.784  4.141e-06
 584.132  4.204e-06
 584.480  4.222e-06
 584.827  4.288e-06
 585.175  4.267e-06
 585.523  4.307e-06
 585.870  4.253e-06
 586.218  4.369e-06
 586.566  4.395e-06
 586.913  4.475e-06
 587.261  4.567e-06
 587.608  4.633e-06
 587.955  4.674e-06
 588.303  4.620e-06
 588.650  4.655e-06
 588.997  4.703e-06
 589.344  4.728e-06
 589.692  4.824e-06
 590.039  4.909e-06
 590.386  5.016e-06
 590.733  5.013e-06
 591.080  5.067e-06
 591.427  5.117e-06
 591.773  5.234e-06
 592.120  5.213e-06
 592.467  5.242e-06
 592.814  5.334e-06
 593.160  5.415e-06
 593.507  5.455e-06
 593.854  5.481e-06
 594.200  5.590e-06
 594.547  5.657e-06
 594.893  5.639e-06
 595.239  5.607e-06
 595.586  5.727e-06
 595.932  5.767e-06
 596.278  5.891e-06
 596.624  5.901e-06
 596.971  6.048e-06
 597.317  6.103e-06
 597.663  6.097e-06
 598.009  6.094e-06
 598.355  6.102e-06
 598.701  6.192e-06
 599.046  6.224e-06
 599.392  6.310e-06
 599.738  6.429e-06
 600.084  6.567e-06
 600.429  6.607e-06
 600.775  6.611e-06
 601.121  6.622e-06
 601.466  6.675e-06
 601.812  6.698e-06
 602.157  6.643e-06
 602.503  6.697e-06
 602.848  6.720e-06
 603.193  6.878e-06
 603.538  6.892e-06
 603.884  6.979e-06
 604.229  6.956e-06
 604.574  6.976e-06
 604.919  7.011e-06
 605.264  7.050e-06
 605.609  7.116e-06
 605.954  7.149e-06
 606.299  7.226e-06
 606.644  7.304e-06
 606.988  7.299e-06
 607.333  7.314e-06
 607.678  7.346e-06
 608.022  7.377e-06
 608.367  7.371e-06
 608.712  7.411e-06
 609.056  7.478e-06
 609.400  7.561e-06
 609.745  7.538e-06
 610.089  7.507e-06
 610.434  7.495e-06
 610.778  7.533e-06
 611.122  7.640e-06
 611.466  7.656e-06
 611.810  7.616e-06
 612.154  7.596e-06
 612.498  7.636e-06
 612.842  7.635e-06
 613.186  7.718e-06
 613.530  7.764e-06
 613.874  7.790e-06
 614.218  7.712e-06
 614.561  7.741e-06
 614.905  7.843e-06
 615.249  7.884e-06
 615.592  7.903e-06
 615.936  7.882e-06
 616.279  7.943e-06
 616.623  7.963e-06
 616.966  7.928e-06
 617.310  8.024e-06
 617.653  7.989e-06
 617.996  8.035e-06
 618.339  7.932e-06
 618.683  7.953e-06
 619.026  8.037e-06
 619.369  8.083e-06
 619.712  8.268e-06
 620.055  8.277e-06
 620.398  8.262e-06
 620.741  8.135e-06
 621.083  8.118e-06
 621.426  8.204e-06
 621.769  8.271e-06
 622.112  8.292e-06
 622.454  8.296e-06
 622.797  8.298e-06
 623.139  8.367e-06
 623.482  8.442e-06
 623.824  8.500e-06
 624.167  8.532e-06
 624.509  8.486e-06
 624.851  8.541e-06
 625.194  8.559e-06
 625.536  8.663e-06
 625.878  8.624e-06
 626.220  8.705e-06
 626.562  8.747e-06
 626.904  8.806e-06
 627.246  8.874e-06
 627.588  8.886e-06
 627.930  8.815e-06
 628.272  8.770e-06
 628.614  8.837e-06
 628.955  9.001e-06
 629.297  9.072e-06
 629.639  9.055e-06
 629.980  9.042e-06
 630.322  9.049e-06
 630.663  9.182e-06
 631.005  9.276e-06
 631.346  9.257e-06
 631.688  9.209e-06
 632.029  9.256e-06
 632.370  9.401e-06
 632.711  9.550e-06
 633.052  9.473e-06
 633.394  9.506e-06
 633.735  9.330e-06
 634.076  9.395e-06
 634.417  9.433e-06
 634.758  9.648e-06
 635.098  9.784e-06
 635.439  9.734e-06
 635.780  9.684e-06
 636.121  9.685e-06
 636.461  9.694e-06
 636.802  9.766e-06
 637.143  9.760e-06
 637.483  9.802e-06
 637.824  9.748e-06
 638.164  9.726e-06
 638.505  9.708e-06
 638.845  9.701e-06
 639.185  9.680e-06
 639.525  9.768e-06
 639.866  9.753e-06
 640.206  9.774e-06
 640.546  9.736e-06
 640.886  9.816e-06
 641.226  9.847e-06
 641.566  9.848e-06
 641.906  9.813e-06
 642.246  9.814e-06
 642.585  9.750e-06
 642.925  9.579e-06
 643.265  9.461e-06
 643.605  9.462e-06
 643.944  9.587e-06
 644.284  9.670e-06
 644.623  9.515e-06
 644.963  9.354e-06
 645.302  9.225e-06
 645.642  9.206e-06
 645.981  9.251e-06
 646.320  9.219e-06
 646.660  9.175e-06
 646.999  9.150e-06
 647.338  9.110e-06
 647.677  9.134e-06
 648.016  9.115e-06
 648.355  9.087e-06
 648.694  9.086e-06
 649.033  8.933e-06
 649.372  8.895e-06
 649.711  8.934e-06
 650.049  9.051e-06
 650.388  9.096e-06
 650.727  9.093e-06
 651.065  9.009e-06
 651.404  8.944e-06
 651.742  8.897e-06
 652.081  8.906e-06
 652.419  8.820e-06
 652.758  8.776e-06
 653.096  8.782e-06
 653.434  8.889e-06
 653.772  8.866e-06
 654.111  8.832e-06
 654.449  8.802e-06
 654.787  8.846e-06
 655.125  8.769e-06
 655.463  8.678e-06
 655.801  8.577e-06
 656.139  8.632e-06
 656.476  8.634e-06
 656.814  8.633e-06
 657.152  8.501e-06
 657.490  8.459e-06
 657.827  8.433e-06
 658.165  8.480e-06
 658.503  8.346e-06
 658.840  8.147e-06
 659.177  7.915e-06
 659.515  7.792e-06
 659.852  7.789e-06
 660.190  7.781e-06
 660.527  7.883e-06
 660.864  7.662e-06
 661.201  7.529e-06
 661.538  7.353e-06
 661.875  7.298e-06
 662.212  7.224e-06
 662.549  6.996e-06
 662.886  6.877e-06
 663.223  6.634e-06
 663.560  6.541e-06
 663.897  6.515e-06
 664.233  6.475e-06
 664.570  6.418e-06
 664.907  6.243e-06
 665.243  6.268e-06
 665.580  6.181e-06
 665.916  6.128e-06
 666.253  5.947e-06
 666.589  5.845e-06
 666.925  5.812e-06
 667.262  5.771e-06
 667.598  5.702e-06
 667.934  5.620e-06
 668.270  5.537e-06
 668.606  5.390e-06
 668.942  5.318e-06
 669.278  5.311e-06
 669.614  5.460e-06
 669.950  5.364e-06
 670.286  5.286e-06
 670.622  5.106e-06
 670.958  5.116e-06
 671.293  5.168e-06
 671.629  5.191e-06
 671.965  5.120e-06
 672.300  4.997e-06
 672.636  5.026e-06
 672.971  5.049e-06
 673.307  5.000e-06
 673.642  4.990e-06
 673.977  5.024e-06
 674.313  5.136e-06
 674.648  5.233e-06
 674.983  5.266e-06
 675.318  5.234e-06
 675.653  5.122e-06
 675.988  5.183e-06
 676.323  5.348e-06
 676.658  5.528e-06
 676.993  5.617e-06
 677.328  5.574e-06
 677.663  5.600e-06
 677.997  5.604e-06
 678.332  5.725e-06
 678.667  5.807e-06
 679.001  5.960e-06
 679.336  6.155e-06
 679.670  6.277e-06
 680.005  6.422e-06
 680.339  6.521e-06
 680.673  6.732e-06
 681.008  6.926e-06
 681.342  7.162e-06
 681.676  7.272e-06
 682.010  7.389e-06
 682.344  7.626e-06
 682.678  7.857e-06
 683.012  8.010e-06
 683.346  8.144e-06
 683.680  8.574e-06
 684.014  8.994e-06
 684.348  9.538e-06
 684.682  9.906e-06
 685.015  1.032e-05
 685.349  1.063e-05
 685.682  1.093e-05
 686.016  1.122e-05
 686.350  1.163e-05
 686.683  1.226e-05
 687.016  1.287e-05
 687.350  1.335e-05
 687.683  1.389e-05
 688.016  1.450e-05
 688.350  1.508e-05
 688.683  1.560e-05
 689.016  1.630e-05
 689.349  1.701e-05
 689.682  1.772e-05
 690.015  1.830e-05
 690.348  1.922e-05
 690.681  1.985e-05
 691.013  2.069e-05
 691.346  2.115e-05
 691.679  2.197e-05
 692.012  2.265e-05
 692.344  2.351e-05
 692.677  2.417e-05
 693.009  2.485e-05
 693.342  2.568e-05
 693.674  2.660e-05
 694.007  2.754e-05
 694.339  2.821e-05
 694.671  2.897e-05
 695.003  2.962e-05
 695.336  3.051e-05
 695.668  3.109e-05
 696.000  3.182e-05
 696.332  3.240e-05
 696.664  3.312e-05
 696.996  3.380e-05
 697.328  3.454e-05
 697.659  3.523e-05
 697.991  3.609e-05
 698.323  3.692e-05
 698.655  3.762e-05
 698.986  3.833e-05
 699.318  3.871e-05
 699.649  3.946e-05
 699.981  4.007e-05
 700.312  4.097e-05
 700.644  4.165e-05
 700.975  4.221e-05
 701.306  4.278e-05
 701.638  4.341e-05
 701.969  4.442e-05
 702.300  4.520e-05
 702.631  4.543e-05
 702.962  4.584e-05
 703.293  4.618e-05
 703.624  4.706e-05
 703.955  4.754e-05
 704.286  4.808e-05
 704.617  4.876e-05
 704.947  4.927e-05
 705.278  5.012e-05
 705.609  5.053e-05
 705.939  5.093e-05
 706.270  5.103e-05
 706.600  5.174e-05
 706.931  5.235e-05
 707.261  5.305e-05
 707.592  5.351e-05
 707.922  5.399e-05
 708.252  5.407e-05
 708.582  5.429e-05
 708.912  5.454e-05
 709.243  5.505e-05
 709.573  5.559e-05
 709.903  5.621e-05
 710.233  5.684e-05
 710.563  5.743e-05
 710.892  5.748e-05
 711.222  5.809e-05
 711.552  5.840e-05
 711.882  5.928e-05
 712.211  5.964e-05
 712.541  5.998e-05
 712.870  6.047e-05
 713.200  6.084e-05
 713.529  6.125e-05
 713.859  6.155e-05
 714.188  6.190e-05
 714.518  6.264e-05
 714.847  6.294e-05
 715.176  6.350e-05
 715.505  6.363e-05
 715.834  6.406e-05
 716.163  6.434e-05
 716.492  6.467e-05
 716.821  6.468e-05
 717.150  6.510e-05
 717.479  6.534e-05
 717.808  6.578e-05
 718.137  6.569e-05
 718.465  6.617e-05
 718.794  6.655e-05
 719.123  6.738e-05
 719.451  6.783e-05
 719.780  6.818e-05
 720.108  6.846e-05
 720.437  6.878e-05
 720.765  6.915e-05
 721.093  6.942e-05
 721.422  6.979e-05
 721.750  7.038e-05
 722.078  7.029e-05
 722.406  7.059e-05
 722.734  7.115e-05
 723.062  7.203e-05
 723.390  7.263e-05
 723.718  7.320e-05
 724.046  7.365e-05
 724.374  7.383e-05
 724.702  7.370e-05
 725.029  7.405e-05
 725.357  7.427e-05
 725.685  7.501e-05
 726.012  7.514e-05
 726.340  7.535e-05
 726.667  7.537e-05
 726.995  7.604e-05
 727.322  7.612e-05
 727.649  7.665e-05
 727.977  7.688e-05
 728.304  7.763e-05
 728.631  7.778e-05
 728.958  7.785e-05
 729.285  7.823e-05
 729.612  7.844e-05
 729.939  7.875e-05
 730.266  7.907e-05
 730.593  7.935e-05
 730.920  7.967e-05
 731.246  8.017e-05
 731.573  8.076e-05
 731.900  8.126e-05
 732.226  8.120e-05
 732.553  8.133e-05
 732.880  8.154e-05
 733.206  8.200e-05
 733.532  8.223e-05
 733.859  8.276e-05
 734.185  8.292e-05
 734.511  8.350e-05
 734.838  8.351e-05
 735.164  8.393e-05
 735.490  8.439e-05
 735.816  8.484e-05
 736.142  8.499e-05
 736.468  8.530e-05
 736.794  8.593e-05
 737.120  8.637e-05
 737.446  8.635e-05
 737.771  8.629e-05
 738.097  8.602e-05
 738.423  8.683e-05
 738.748  8.725e-05
 739.074  8.826e-05
 739.399  8.831e-05
 739.725  8.885e-05
 740.050  8.853e-05
 740.376  8.890e-05
 740.701  8.843e-05
 741.026  8.914e-05
 741.352  8.956e-05
 741.677  9.049e-05
 742.002  9.091e-05
 742.327  9.085e-05
 742.652  9.122e-05
 742.977  9.205e-05
 743.302  9.263e-05
 743.627  9.332e-05
 743.951  9.342e-05
 744.276  9.404e-05
 744.601  9.419e-05
 744.926  9.416e-05
 745.250  9.391e-05
 745.575  9.374e-05
 745.899  9.476e-05
 746.224  9.500e-05
 746.548  9.548e-05
 746.873  9.537e-05
 747.197  9.620e-05
 747.521  9.659e-05
 747.845  9.686e-05
 748.170  9.751e-05
 748.494  9.829e-05
 748.818  9.895e-05
 749.142  9.875e-05
 749.466  9.849e-05
 749.790  9.826e-05
 750.113  9.833e-05
 750.437  9.843e-05
 750.761  9.915e-05
 751.085  9.934e-05
 751.408  9.960e-05
 751.732  9.950e-05
 752.056  1.004e-04
 752.379  1.009e-04
 752.702  1.020e-04
 753.026  1.020e-04
 753.349  1.022e-04
 753.673  1.015e-04
 753.996  1.015e-04
 754.319  1.020e-04
 754.642  1.024e-04
 754.965  1.031e-04
 755.288  1.035e-04
 755.611  1.042e-04
 755.934  1.040e-04
 756.257  1.039e-04
 756.580  1.041e-04
 756.903  1.050e-04
 757.226  1.056e-04
 757.548  1.062e-04
 757.871  1.061e-04
 758.194  1.063e-04
 758.516  1.063e-04
 758.839  1.065e-04
 759.161  1.064e-04
 759.483  1.061e-04
 759.806  1.067e-04
 760.128  1.074e-04
 760.450  1.076e-04
 760.772  1.077e-04
 761.095  1.075e-04
 761.417  1.087e-04
 761.739  1.088e-04
 762.061  1.092e-04
 762.383  1.089e-04
 762.705  1.092e-04
 763.026  1.093e-04
 763.348  1.094e-04
 763.670  1.099e-04
 763.992  1.100e-04
 764.313  1.097e-04
 764.635  1.097e-04
 764.956  1.102e-04
 765.278  1.112e-04
 765.599  1.118e-04
 765.921  1.121e-04
 766.242  1.121e-04
 766.563  1.119e-04
 766.884  1.119e-04
 767.206  1.117e-04
 767.527  1.120e-04
 767.848  1.110e-04
 768.169  1.107e-04
 768.490  1.106e-04
 768.811  1.106e-04
 769.132  1.107e-04
 769.452  1.106e-04
 769.773  1.114e-04
 770.094  1.122e-04
 770.415  1.130e-04
 770.735  1.139e-04
 771.056  1.132e-04
 771.376  1.128e-04
 771.697  1.123e-04
 772.017  1.129e-04
 772.338  1.137e-04
 772.658  1.135e-04
 772.978  1.146e-04
 773.298  1.152e-04
 773.619  1.155e-04
 773.939  1.150e-04
 774.259  1.148e-04
 774.579  1.154e-04
 774.899  1.169e-04
 775.219  1.173e-04
 775.538  1.184e-04
 775.858  1.182e-04
 776.178  1.186e-04
 776.498  1.183e-04
 776.817  1.190e-04
 777.137  1.196e-04
 777.456  1.205e-04
 777.776  1.205e-04
 778.095  1.207e-04
 778.415  1.209e-04
 778.734  1.224e-04
 779.053  1.230e-04
 779.373  1.243e-04
 779.692  1.244e-04
 780.011  1.251e-04
 780.330  1.250e-04
 780.649  1.257e-04
 780.968  1.265e-04
 781.287  1.269e-04
 781.606  1.275e-04
 781.925  1.279e-04
 782.244  1.282e-04
 782.562  1.282e-04
 782.881  1.284e-04
 783.200  1.293e-04
 783.518  1.292e-04
 783.837  1.299e-04
 784.155  1.300e-04
 784.474  1.307e-04
 784.792  1.311e-04
 785.110  1.316e-04
 785.429  1.318e-04
 785.747  1.320e-04
 786.065  1.320e-04
 786.383  1.332e-04
 786.701  1.331e-04
 787.019  1.334e-04
 787.337  1.336e-04
 787.655  1.341e-04
 787.973  1.349e-04
 788.291  1.355e-04
 788.608  1.357e-04
 788.926  1.362e-04
 789.244  1.357e-04
 789.561  1.363e-04
 789.879  1.359e-04
 790.196  1.356e-04
 790.514  1.357e-04
 790.831  1.362e-04
 791.149  1.371e-04
 791.466  1.375e-04
 791.783  1.380e-04
 792.100  1.379e-04
 792.418  1.379e-04
 792.735  1.376e-04
 793.052  1.383e-04
 793.369  1.389e-04
 793.686  1.400e-04
 794.002  1.407e-04
 794.319  1.403e-04
 794.636  1.408e-04
 794.953  1.411e-04
 795.269  1.418e-04
 795.586  1.414e-04
 795.903  1.418e-04
 796.219  1.422e-04
 796.536  1.429e-04
 796.852  1.429e-04
 797.168  1.434e-04
 797.485  1.445e-04
 797.801  1.445e-04
 798.117  1.452e-04
 798.433  1.452e-04
 798.750  1.453e-04
 799.066  1.447e-04
 799.382  1.444e-04
 799.698  1.446e-04
 800.013  1.447e-04
 800.329  1.451e-04
 800.645  1.455e-04
 800.961  1.470e-04
 801.277  1.480e-04
 801.592  1.487e-04
 801.908  1.478e-04
 802.223  1.471e-04
 802.539  1.469e-04
 802.854  1.476e-04
 803.170  1.484e-04
 803.485  1.492e-04
 803.800  1.498e-04
 804.116  1.500e-04
 804.431  1.500e-04
 804.746  1.499e-04
 805.061  1.507e-04
 805.376  1.507e-04
 805.691  1.514e-04
 806.006  1.513e-04
 806.321  1.511e-04
 806.636  1.509e-04
 806.950  1.512e-04
 807.265  1.523e-04
 807.580  1.529e-04
 807.894  1.532e-04
 808.209  1.540e-04
 808.523  1.536e-04
 808.838  1.533e-04
 809.152  1.528e-04
 809.467  1.542e-04
 809.781  1.553e-04
 810.095  1.557e-04
 810.409  1.554e-04
 810.724  1.557e-04
 811.038  1.566e-04
 811.352  1.572e-04
 811.666  1.573e-04
 811.980  1.567e-04
 812.294  1.563e-04
 812.607  1.568e-04
 812.921  1.571e-04
 813.235  1.581e-04
 813.549  1.583e-04
 813.862  1.589e-04
 814.176  1.589e-04
 814.489  1.592e-04
 814.803  1.591e-04
 815.116  1.593e-04
 815.430  1.593e-04
 815.743  1.597e-04
 816.056  1.591e-04
 816.369  1.598e-04
 816.683  1.602e-04
 816.996  1.614e-04
 817.309  1.613e-04
 817.622  1.615e-04
 817.935  1.609e-04
 818.248  1.613e-04
 818.561  1.615e-04
 818.873  1.619e-04
 819.186  1.622e-04
 819.499  1.634e-04
 819.811  1.639e-04
 820.124  1.638e-04
 820.437  1.635e-04
 820.749  1.646e-04
 821.061  1.654e-04
 821.374  1.659e-04
 821.686  1.658e-04
 821.998  1.655e-04
 822.311  1.657e-04
 822.623  1.658e-04
 822.935  1.657e-04
 823.247  1.660e-04
 823.559  1.666e-04
 823.871  1.668e-04
 824.183  1.669e-04
 824.495  1.674e-04
 824.807  1.676e-04
 825.118  1.679e-04
 825.430  1.681e-04
 825.742  1.692e-04
 826.053  1.700e-04
 826.365  1.689e-04
 826.676  1.680e-04
 826.988  1.690e-04
 827.299  1.708e-04
 827.611  1.725e-04
 827.922  1.726e-04
 828.233  1.724e-04
 828.544  1.726e-04
 828.856  1.714e-04
 829.167  1.714e-04
 829.478  1.716e-04
 829.789  1.727e-04
 830.100  1.728e-04
 830.410  1.734e-04
 830.721  1.730e-04
 831.032  1.734e-04
 831.343  1.726e-04
 831.653  1.732e-04
 831.964  1.736e-04
 832.275  1.738e-04
 832.585  1.735e-04
 832.896  1.743e-04
 833.206  1.744e-04
 833.516  1.753e-04
 833.827  1.754e-04
 834.137  1.766e-04
 834.447  1.762e-04
 834.757  1.760e-04
 835.067  1.751e-04
 835.377  1.755e-04
 835.687  1.760e-04
 835.997  1.771e-04
 836.307  1.777e-04
 836.617  1.779e-04
 836.927  1.778e-04
 837.236  1.778e-04
 837.546  1.782e-04
 837.856  1.790e-04
 838.165  1.798e-04
 838.475  1.796e-04
 838.784  1.784e-04
 839.094  1.789e-04
 839.403  1.791e-04
 839.712  1.813e-04
 840.022  1.812e-04
 840.331  1.816e-04
 840.640  1.817e-04
 840.949  1.824e-04
 841.258  1.829e-04
 841.567  1.830e-04
 841.876  1.822e-04
 842.185  1.821e-04
 842.494  1.816e-04
 842.802  1.831e-04
 843.111  1.825e-04
 843.420  1.831e-04
 843.728  1.828e-04
 844.037  1.843e-04
 844.346  1.840e-04
 844.654  1.851e-04
 844.962  1.852e-04
 845.271  1.866e-04
 845.579  1.859e-04
 845.887  1.850e-04
 846.196  1.840e-04
 846.504  1.851e-04
 846.812  1.865e-04
 847.120  1.869e-04
 847.428  1.865e-04
 847.736  1.873e-04
 848.044  1.877e-04
 848.351  1.875e-04
 848.659  1.870e-04
 848.967  1.872e-04
 849.275  1.874e-04
 849.582  1.878e-04
 849.890  1.886e-04
 850.197  1.890e-04
 850.505  1.892e-04
 850.812  1.899e-04
 851.120  1.910e-04
 851.427  1.916e-04
 851.734  1.912e-04
 852.041  1.904e-04
 852.349  1.895e-04
 852.656  1.898e-04
 852.963  1.899e-04
 853.270  1.921e-04
 853.577  1.929e-04
 853.883  1.937e-04
 854.190  1.929e-04
 854.497  1.926e-04
 854.804  1.918e-04
 855.110  1.910e-04
 855.417  1.920e-04
 855.724  1.930e-04
 856.030  1.930e-04
 856.337  1.933e-04
 856.643  1.949e-04
 856.949  1.962e-04
 857.256  1.953e-04
 857.562  1.940e-04
 857.868  1.953e-04
 858.174  1.961e-04
 858.480  1.975e-04
 858.786  1.968e-04
 859.092  1.974e-04
 859.398  1.978e-04
 859.704  1.982e-04
 860.010  1.987e-04
 860.316  1.984e-04
 860.622  1.992e-04
 860.927  1.993e-04
 861.233  1.995e-04
 861.538  1.991e-04
 861.844  1.984e-04
 862.149  1.990e-04
 862.455  1.987e-04
 862.760  1.995e-04
 863.065  2.004e-04
 863.371  2.017e-04
 863.676  2.020e-04
 863.981  2.014e-04
 864.286  2.004e-04
 864.591  2.003e-04
 864.896  2.004e-04
 865.201  2.012e-04
 865.506  2.014e-04
 865.811  2.020e-04
 866.115  2.030e-04
 866.420  2.038e-04
 866.725  2.039e-04
 867.029  2.033e-04
 867.334  2.033e-04
 867.638  2.031e-04
 867.943  2.037e-04
 868.247  2.043e-04
 868.552  2.043e-04
 868.856  2.058e-04
 869.160  2.064e-04
 869.464  2.071e-04
 869.768  2.064e-04
 870.073  2.071e-04
 870.377  2.067e-04
 870.681  2.060e-04
 870.984  2.054e-04
 871.288  2.070e-04
 871.592  2.079e-04
 871.896  2.074e-04
 872.200  2.079e-04
 872.503  2.087e-04
 872.807  2.083e-04
 873.110  2.070e-04
 873.414  2.062e-04
 873.717  2.071e-04
 874.021  2.094e-04
 874.324  2.097e-04
 874.627  2.107e-04
 874.931  2.091e-04
 875.234  2.101e-04
 875.537  2.105e-04
 875.840  2.115e-04
 876.143  2.118e-04
 876.446  2.127e-04
 876.749  2.118e-04
 877.052  2.117e-04
 877.354  2.100e-04
 877.657  2.107e-04
 877.960  2.111e-04
 878.262  2.124e-04
 878.565  2.136e-04
 878.868  2.146e-04
 879.170  2.146e-04
 879.473  2.141e-04
 879.775  2.142e-04
 880.077  2.140e-04
 880.379  2.148e-04
 880.682  2.150e-04
 880.984  2.161e-04
 881.286  2.169e-04
 881.588  2.175e-04
 881.890  2.180e-04
 882.192  2.184e-04
 882.494  2.188e-04
 882.796  2.187e-04
 883.097  2.184e-04
 883.399  2.189e-04
 883.701  2.204e-04
 884.002  2.209e-04
 884.304  2.218e-04
 884.606  2.222e-04
 884.907  2.227e-04
 885.208  2.225e-04
 885.510  2.232e-04
 885.811  2.225e-04
 886.112  2.236e-04
 886.414  2.219e-04
 886.715  2.224e-04
 887.016  2.218e-04
 887.317  2.233e-04
 887.618  2.254e-04
 887.919  2.250e-04
 888.220  2.246e-04
 888.520  2.239e-04
 888.821  2.258e-04
 889.122  2.273e-04
 889.423  2.276e-04
 889.723  2.264e-04
 890.024  2.250e-04
 890.324  2.249e-04
 890.625  2.255e-04
 890.925  2.266e-04
 891.225  2.266e-04
 891.526  2.261e-04
 891.826  2.267e-04
 892.126  2.270e-04
 892.426  2.283e-04
 892.726  2.293e-04
 893.026  2.305e-04
 893.326  2.303e-04
 893.626  2.306e-04
 893.926  2.305e-04
 894.226  2.314e-04
 894.526  2.312e-04
 894.825  2.311e-04
 895.125  2.312e-04
 895.424  2.310e-04
 895.724  2.327e-04
 896.023  2.330e-04
 896.323  2.341e-04
 896.622  2.329e-04
 896.922  2.329e-04
 897.221  2.331e-04
 897.520  2.343e-04
 897.819  2.351e-04
 898.118  2.348e-04
 898.417  2.351e-04
 898.716  2.351e-04
 899.015  2.361e-04
 899.314  2.366e-04
 899.613  2.377e-04
 899.912  2.376e-04
 900.210  2.376e-04
 900.509  2.370e-04
 900.808  2.378e-04
 901.106  2.376e-04
 901.405  2.367e-04
 901.703  2.361e-04
 902.002  2.367e-04
 902.300  2.391e-04
 902.598  2.393e-04
 902.897  2.390e-04
 903.195  2.375e-04
 903.493  2.391e-04
 903.791  2.412e-04
 904.089  2.421e-04
 904.387  2.421e-04
 904.685  2.414e-04
 904.983  2.413e-04
 905.281  2.428e-04
 905.578  2.419e-04
 905.876  2.419e-04
 906.174  2.394e-04
 906.471  2.418e-04
 906.769  2.428e-04
 907.066  2.445e-04
 907.364  2.432e-04
 907.661  2.447e-04
 907.958  2.457e-04
 908.256  2.462e-04
 908.553  2.441e-04
 908.850  2.442e-04
 909.147  2.434e-04
 909.444  2.452e-04
 909.741  2.453e-04
 910.038  2.467e-04
 910.335  2.474e-04
 910.632  2.478e-04
 910.929  2.509e-04
 911.225  2.513e-04
 911.522  2.508e-04
 911.819  2.500e-04
 912.115  2.503e-04
 912.412  2.519e-04
 912.708  2.527e-04
 913.005  2.519e-04
 913.301  2.518e-04
 913.597  2.494e-04
 913.893  2.513e-04
 914.190  2.524e-04
 914.486  2.535e-04
 914.782  2.548e-04
 915.078  2.544e-04
 915.374  2.550e-04
 915.670  2.538e-04
 915.966  2.550e-04
 916.261  2.558e-04
 916.557  2.574e-04
 916.853  2.595e-04
 917.148  2.603e-04
 917.444  2.593e-04
 917.740  2.581e-04
 918.035  2.586e-04
 918.330  2.588e-04
 918.626  2.579e-04
 918.921  2.589e-04
 919.216  2.606e-04
 919.512  2.615e-04
 919.807  2.607e-04
 920.102  2.592e-04
 920.397  2.595e-04
 920.692  2.605e-04
 920.987  2.621e-04
 921.282  2.636e-04
 921.577  2.630e-04
 921.871  2.622e-04
 922.166  2.608e-04
 922.461  2.634e-04
 922.755  2.656e-04
 923.050  2.675e-04
 923.344  2.674e-04
 923.639  2.657e-04
 923.933  2.633e-04
 924.227  2.609e-04
 924.522  2.631e-04
 924.816  2.641e-04
 925.110  2.677e-04
 925.404  2.669e-04
 925.698  2.677e-04
 925.992  2.658e-04
 926.286  2.661e-04
 926.580  2.655e-04
 926.874  2.659e-04
 927.168  2.662e-04
 927.462  2.697e-04
 927.755  2.690e-04
 928.049  2.703e-04
 928.342  2.685e-04
 928.636  2.696e-04
 928.929  2.699e-04
 929.223  2.707e-04
 929.516  2.694e-04
 929.810  2.686e-04
 930.103  2.687e-04
 930.396  2.704e-04
 930.689  2.698e-04
 930.982  2.706e-04
 931.275  2.726e-04
 931.568  2.741e-04
 931.861  2.742e-04
 932.154  2.719e-04
 932.447  2.706e-04
 932.740  2.695e-04
 933.032  2.710e-04
 933.325  2.725e-04
 933.617  2.736e-04
 933.910  2.724e-04
 934.202  2.711e-04
 934.495  2.722e-04
 934.787  2.736e-04
 935.080  2.733e-04
 935.372  2.726e-04
 935.664  2.719e-04
 935.956  2.737e-04
 936.248  2.724e-04
 936.540  2.733e-04
 936.832  2.730e-04
 937.124  2.719e-04
 937.416  2.724e-04
 937.708  2.738e-04
 938.000  2.753e-04
 938.291  2.762e-04
 938.583  2.746e-04
 938.875  2.764e-04
 939.166  2.747e-04
 939.458  2.760e-04
 939.749  2.769e-04
 940.041  2.789e-04
 940.332  2.800e-04
 940.623  2.780e-04
 940.914  2.778e-04
 941.206  2.781e-04
 941.497  2.811e-04
 941.788  2.797e-04
 942.079  2.776e-04
 942.370  2.753e-04
 942.661  2.769e-04
 942.951  2.806e-04
 943.242  2.811e-04
 943.533  2.819e-04
 943.824  2.793e-04
 944.114  2.798e-04
 944.405  2.803e-04
 944.695  2.816e-04
 944.986  2.819e-04
 945.276  2.825e-04
 945.566  2.810e-04
 945.857  2.791e-04
 946.147  2.776e-04
 946.437  2.770e-04
 946.727  2.797e-04
 947.017  2.816e-04
 947.307  2.828e-04
 947.597  2.836e-04
 947.887  2.793e-04
 948.177  2.818e-04
 948.467  2.809e-04
 948.757  2.816e-04
 949.046  2.775e-04
 949.336  2.759e-04
 949.625  2.756e-04
 949.915  2.778e-04
 950.204  2.787e-04
 950.494  2.801e-04
 950.783  2.795e-04
 951.072  2.811e-04
 951.362  2.812e-04
 951.651  2.834e-04
 951.940  2.822e-04
 952.229  2.836e-04
 952.518  2.822e-04
 952.807  2.779e-04
 953.096  2.782e-04
 953.385  2.789e-04
 953.674  2.812e-04
 953.962  2.821e-04
 954.251  2.778e-04
 954.540  2.771e-04
 954.828  2.751e-04
 955.117  2.761e-04
 955.405  2.771e-04
 955.694  2.740e-04
 955.982  2.753e-04
 956.270  2.739e-04
 956.559  2.718e-04
 956.847  2.723e-04
 957.135  2.750e-04
 957.423  2.809e-04
 957.711  2.803e-04
 957.999  2.802e-04
 958.287  2.741e-04
 958.575  2.710e-04
 958.863  2.696e-04
 959.150  2.738e-04
 959.438  2.772e-04
 959.726  2.765e-04
 960.013  2.751e-04
 960.301  2.744e-04
 960.588  2.746e-04
 960.876  2.739e-04
 961.163  2.719e-04
 961.450  2.722e-04
 961.738  2.749e-04
 962.025  2.804e-04
 962.312  2.812e-04
 962.599  2.812e-04
 962.886  2.782e-04
 963.173  2.791e-04
 963.460  2.778e-04
 963.747  2.787e-04
 964.034  2.764e-04
 964.320  2.743e-04
 964.607  2.738e-04
 964.894  2.785e-04
 965.180  2.805e-04
 965.467  2.794e-04
 965.753  2.785e-04
 966.040  2.777e-04
 966.326  2.772e-04
 966.612  2.740e-04
 966.899  2.743e-04
 967.185  2.729e-04
 967.471  2.744e-04
 967.757  2.727e-04
 968.043  2.719e-04
 968.329  2.681e-04
 968.615  2.680e-04
 968.901  2.681e-04
 969.187  2.707e-04
 969.472  2.678e-04
 969.758  2.689e-04
 970.044  2.650e-04
 970.329  2.715e-04
 970.615  2.721e-04
 970.900  2.715e-04
 971.186  2.693e-04
 971.471  2.709e-04
 971.756  2.796e-04
 972.042  2.770e-04
 972.327  2.762e-04
 972.612  2.698e-04
 972.897  2.758e-04
 973.182  2.758e-04
 973.467  2.771e-04
 973.752  2.733e-04
 974.037  2.726e-04
 974.322  2.692e-04
 974.606  2.679e-04
 974.891  2.694e-04
 975.176  2.714e-04
 975.460  2.673e-04
 975.745  2.582e-04
 976.029  2.626e-04
 976.314  2.681e-04
 976.598  2.802e-04
 976.882  2.789e-04
 977.167  2.842e-04
 977.451  2.792e-04
 977.735  2.758e-04
 978.019  2.707e-04
 978.303  2.685e-04
 978.587  2.678e-04
 978.871  2.624e-04
 979.155  2.626e-04
 979.439  2.593e-04
 979.722  2.617e-04
 980.006  2.596e-04
 980.290  2.584e-04
 980.573  2.573e-04
 980.857  2.560e-04
 981.140  2.622e-04
 981.424  2.680e-04
 981.707  2.738e-04
 981.990  2.680e-04
 982.273  2.681e-04
 982.557  2.707e-04
 982.840  2.792e-04
 983.123  2.751e-04
 983.406  2.710e-04
 983.689  2.705e-04
 983.972  2.668e-04
 984.255  2.613e-04
 984.537  2.622e-04
 984.820  2.580e-04
 985.103  2.626e-04
 985.385  2.512e-04
 985.668  2.593e-04
 985.951  2.525e-04
 986.233  2.594e-04
 986.515  2.602e-04
 986.798  2.650e-04
 987.080  2.566e-04
 987.362  2.584e-04
 987.644  2.606e-04
 987.927  2.657e-04
 988.209  2.647e-04
 988.491  2.695e-04
 988.773  2.652e-04
 989.055  2.640e-04
 989.336  2.559e-04
 989.618  2.515e-04
 989.900  2.518e-04
 990.182  2.526e-04
 990.463  2.618e-04
 990.745  2.544e-04
 991.026  2.480e-04
 991.308  2.455e-04
 991.589  2.515e-04
 991.870  2.512e-04
 992.152  2.540e-04
 992.433  2.605e-04
 992.714  2.610e-04
 992.995  2.549e-04
 993.276  2.385e-04
 993.557  2.379e-04
 993.838  2.375e-04
 994.119  2.418e-04
 994.400  2.492e-04
 994.681  2.495e-04
 994.961  2.484e-04
 995.242  2.406e-04
 995.523  2.341e-04
 995.803  2.375e-04
 996.084  2.443e-04
 996.364  2.586e-04
 996.645  2.535e-04
 996.925  2.375e-04
 997.205  2.306e-04
 997.485  2.379e-04
 997.766  2.460e-04
 998.046  2.470e-04
 998.326  2.439e-04
 998.606  2.538e-04
 998.886  2.472e-04
 999.166  2.494e-04
 999.445  2.489e-04
 999.725  2.505e-04
1000.005  2.465e-04
1000.284  2.475e-04
1000.564  2.476e-04
1000.844  2.469e-04
1001.123  2.498e-04
1001.402  2.614e-04
1001.682  2.622e-04
1001.961  2.552e-04
1002.240  2.485e-04
1002.520  2.524e-04
1002.799  2.686e-04
1003.078  2.786e-04
1003.357  2.738e-04
1003.636  2.524e-04
1003.915  2.424e-04
1004.194  2.333e-04
1004.472  2.376e-04
1004.751  2.321e-04
1005.030  2.290e-04
1005.309  2.424e-04
1005.587  2.497e-04
1005.866  2.524e-04
1006.144  2.406e-04
1006.422  2.420e-04
1006.701  2.561e-04
1006.979  2.550e-04
1007.257  2.537e-04
1007.536  2.530e-04
1007.814  2.506e-04
1008.092  2.472e-04
1008.370  2.488e-04
1008.648  2.452e-04
1008.926  2.541e-04
1009.203  2.544e-04
1009.481  2.613e-04
1009.759  2.559e-04
1010.037  2.473e-04
1010.314  2.395e-04
1010.592  2.324e-04
1010.869  2.642e-04
1011.147  2.867e-04
1011.424  3.026e-04
1011.701  2.857e-04
1011.979  2.807e-04
1012.256  2.522e-04
1012.533  2.411e-04
1012.810  2.300e-04
1013.087  2.500e-04
1013.364  2.475e-04
1013.641  2.445e-04
1013.918  2.395e-04
1014.195  2.395e-04
